Dark spectrum
Integration time [ms]:  70,000
Averaging Nr. [scans]: 10
Smoothing Nr. [pixels]: 0
Data measured with spectrometer [name]: 1804344U2
Wave   ;Sample   ;Dark     ;Reference;Scope
[nm]   ;[counts] ;[counts] ;[counts] 

293,333;   30,200;   30,200;    0,000
293,501;   15,800;   15,800;    0,000
293,670;   23,900;   23,900;    0,000
293,839;    1,200;    1,200;    0,000
294,008;   50,200;   50,200;    0,000
294,177;  -22,200;  -22,200;    0,000
294,345;  -11,800;  -11,800;    0,000
294,514;  -62,400;  -62,400;    0,000
294,683;   56,900;   56,900;    0,000
294,852;   13,100;   13,100;    0,000
295,020;  -35,200;  -35,200;    0,000
295,189;   -4,900;   -4,900;    0,000
295,358;   17,200;   17,200;    0,000
295,527;  -21,200;  -21,200;    0,000
295,695;   31,900;   31,900;    0,000
295,864;   46,200;   46,200;    0,000
296,033;   20,100;   20,100;    0,000
296,201;  -17,100;  -17,100;    0,000
296,370;   39,000;   39,000;    0,000
296,539;  -34,500;  -34,500;    0,000
296,708;    5,000;    5,000;    0,000
296,876;  -15,700;  -15,700;    0,000
297,045;   12,900;   12,900;    0,000
297,214;    3,100;    3,100;    0,000
297,382;   -1,300;   -1,300;    0,000
297,551;    2,500;    2,500;    0,000
297,720;   -0,500;   -0,500;    0,000
297,888;    3,800;    3,800;    0,000
298,057;   -5,500;   -5,500;    0,000
298,226;   -6,500;   -6,500;    0,000
298,394;   23,400;   23,400;    0,000
298,563;   40,200;   40,200;    0,000
298,731;   46,300;   46,300;    0,000
298,900;   -6,700;   -6,700;    0,000
299,069;   -1,800;   -1,800;    0,000
299,237;  -19,500;  -19,500;    0,000
299,406;   -1,500;   -1,500;    0,000
299,574;    9,900;    9,900;    0,000
299,743;   49,200;   49,200;    0,000
299,912;  -11,900;  -11,900;    0,000
300,080;   60,500;   60,500;    0,000
300,249;   -1,500;   -1,500;    0,000
300,417;   -8,800;   -8,800;    0,000
300,586;  -44,000;  -44,000;    0,000
300,754;    4,300;    4,300;    0,000
300,923;    6,600;    6,600;    0,000
301,091;   23,500;   23,500;    0,000
301,260;   -2,700;   -2,700;    0,000
301,428;   -1,300;   -1,300;    0,000
301,597;   -1,400;   -1,400;    0,000
301,766;   44,100;   44,100;    0,000
301,934;   22,300;   22,300;    0,000
302,103;   12,500;   12,500;    0,000
302,271;  -37,400;  -37,400;    0,000
302,439;   23,500;   23,500;    0,000
302,608;  -26,200;  -26,200;    0,000
302,776;  -31,100;  -31,100;    0,000
302,945;   14,300;   14,300;    0,000
303,113;   11,300;   11,300;    0,000
303,282;   -7,400;   -7,400;    0,000
303,450;  -44,400;  -44,400;    0,000
303,619;   13,300;   13,300;    0,000
303,787;   27,300;   27,300;    0,000
303,956;   28,600;   28,600;    0,000
304,124;   45,600;   45,600;    0,000
304,292;  -24,800;  -24,800;    0,000
304,461;   -4,300;   -4,300;    0,000
304,629;   53,300;   53,300;    0,000
304,798;   60,000;   60,000;    0,000
304,966;   27,300;   27,300;    0,000
305,134;    6,000;    6,000;    0,000
305,303;    4,600;    4,600;    0,000
305,471;   51,500;   51,500;    0,000
305,639;  -25,100;  -25,100;    0,000
305,808;  -15,400;  -15,400;    0,000
305,976;   12,200;   12,200;    0,000
306,145;   14,700;   14,700;    0,000
306,313;    5,800;    5,800;    0,000
306,481;   37,400;   37,400;    0,000
306,650;   27,100;   27,100;    0,000
306,818;   60,400;   60,400;    0,000
306,986;   -5,600;   -5,600;    0,000
307,155;   -7,000;   -7,000;    0,000
307,323;    5,900;    5,900;    0,000
307,491;   16,200;   16,200;    0,000
307,659;   -7,300;   -7,300;    0,000
307,828;   24,200;   24,200;    0,000
307,996;  -31,200;  -31,200;    0,000
308,164;  -39,200;  -39,200;    0,000
308,332;   60,800;   60,800;    0,000
308,501;   14,900;   14,900;    0,000
308,669;    4,100;    4,100;    0,000
308,837;   26,200;   26,200;    0,000
309,006;   39,100;   39,100;    0,000
309,174;  -11,900;  -11,900;    0,000
309,342;   -1,200;   -1,200;    0,000
309,510;    2,700;    2,700;    0,000
309,678;   15,200;   15,200;    0,000
309,847;   18,900;   18,900;    0,000
310,015;   11,500;   11,500;    0,000
310,183;  -22,300;  -22,300;    0,000
310,351;  -34,700;  -34,700;    0,000
310,519;   -7,900;   -7,900;    0,000
310,688;    1,500;    1,500;    0,000
310,856;   15,800;   15,800;    0,000
311,024;  -19,000;  -19,000;    0,000
311,192;   -8,700;   -8,700;    0,000
311,360;    0,200;    0,200;    0,000
311,528;   16,400;   16,400;    0,000
311,697;   -8,700;   -8,700;    0,000
311,865;    6,600;    6,600;    0,000
312,033;   25,700;   25,700;    0,000
312,201;   32,200;   32,200;    0,000
312,369;   -4,600;   -4,600;    0,000
312,537;    0,500;    0,500;    0,000
312,705;   -1,700;   -1,700;    0,000
312,873;  -13,900;  -13,900;    0,000
313,041;    1,500;    1,500;    0,000
313,210;  -10,900;  -10,900;    0,000
313,378;   36,800;   36,800;    0,000
313,546;    4,200;    4,200;    0,000
313,714;   25,500;   25,500;    0,000
313,882;   17,800;   17,800;    0,000
314,050;   -9,700;   -9,700;    0,000
314,218;    1,900;    1,900;    0,000
314,386;    6,700;    6,700;    0,000
314,554;   10,600;   10,600;    0,000
314,722;   17,000;   17,000;    0,000
314,890;   35,500;   35,500;    0,000
315,058;   -7,500;   -7,500;    0,000
315,226;   12,500;   12,500;    0,000
315,394;    1,900;    1,900;    0,000
315,562;   30,900;   30,900;    0,000
315,730;   20,600;   20,600;    0,000
315,898;    4,200;    4,200;    0,000
316,066;   36,700;   36,700;    0,000
316,234;    2,900;    2,900;    0,000
316,402;  -19,600;  -19,600;    0,000
316,570;    4,400;    4,400;    0,000
316,738;    6,900;    6,900;    0,000
316,906;   35,700;   35,700;    0,000
317,074;   15,000;   15,000;    0,000
317,242;   35,200;   35,200;    0,000
317,410;   -6,500;   -6,500;    0,000
317,578;   -7,700;   -7,700;    0,000
317,745;   -7,800;   -7,800;    0,000
317,913;   39,100;   39,100;    0,000
318,081;   36,000;   36,000;    0,000
318,249;   24,800;   24,800;    0,000
318,417;   38,600;   38,600;    0,000
318,585;    8,500;    8,500;    0,000
318,753;  -35,600;  -35,600;    0,000
318,921;  -19,600;  -19,600;    0,000
319,089;   11,100;   11,100;    0,000
319,256;    4,900;    4,900;    0,000
319,424;   -9,000;   -9,000;    0,000
319,592;   32,400;   32,400;    0,000
319,760;   -6,500;   -6,500;    0,000
319,928;   -1,800;   -1,800;    0,000
320,096;    6,700;    6,700;    0,000
320,263;  -16,200;  -16,200;    0,000
320,431;    1,900;    1,900;    0,000
320,599;   25,600;   25,600;    0,000
320,767;    4,900;    4,900;    0,000
320,935;    9,600;    9,600;    0,000
321,103;   16,300;   16,300;    0,000
321,270;   37,800;   37,800;    0,000
321,438;  -49,300;  -49,300;    0,000
321,606;   18,100;   18,100;    0,000
321,774;   -2,600;   -2,600;    0,000
321,941;  -28,700;  -28,700;    0,000
322,109;  -22,600;  -22,600;    0,000
322,277;   -5,400;   -5,400;    0,000
322,445;   -1,500;   -1,500;    0,000
322,612;   31,900;   31,900;    0,000
322,780;  -11,700;  -11,700;    0,000
322,948;    9,200;    9,200;    0,000
323,116;  -17,100;  -17,100;    0,000
323,283;    0,600;    0,600;    0,000
323,451;   24,500;   24,500;    0,000
323,619;   46,700;   46,700;    0,000
323,786;  -12,600;  -12,600;    0,000
323,954;   21,200;   21,200;    0,000
324,122;   -3,200;   -3,200;    0,000
324,289;    9,600;    9,600;    0,000
324,457;   -9,000;   -9,000;    0,000
324,625;    6,800;    6,800;    0,000
324,792;   -7,800;   -7,800;    0,000
324,960;   -2,000;   -2,000;    0,000
325,128;    9,400;    9,400;    0,000
325,295;   37,700;   37,700;    0,000
325,463;   45,900;   45,900;    0,000
325,631;   30,100;   30,100;    0,000
325,798;   17,200;   17,200;    0,000
325,966;   37,700;   37,700;    0,000
326,133;   15,100;   15,100;    0,000
326,301;   13,600;   13,600;    0,000
326,469;    3,400;    3,400;    0,000
326,636;   29,800;   29,800;    0,000
326,804;  -28,100;  -28,100;    0,000
326,971;   15,600;   15,600;    0,000
327,139;   11,000;   11,000;    0,000
327,306;   10,500;   10,500;    0,000
327,474;  -18,300;  -18,300;    0,000
327,641;   31,400;   31,400;    0,000
327,809;  -13,800;  -13,800;    0,000
327,977;    4,100;    4,100;    0,000
328,144;   -2,900;   -2,900;    0,000
328,312;   36,300;   36,300;    0,000
328,479;    2,500;    2,500;    0,000
328,647;   22,500;   22,500;    0,000
328,814;   36,100;   36,100;    0,000
328,982;    9,000;    9,000;    0,000
329,149;  -20,600;  -20,600;    0,000
329,317;   72,400;   72,400;    0,000
329,484;    1,200;    1,200;    0,000
329,652;   51,700;   51,700;    0,000
329,819;    8,300;    8,300;    0,000
329,986;   14,700;   14,700;    0,000
330,154;   27,800;   27,800;    0,000
330,321;  -12,200;  -12,200;    0,000
330,489;   15,400;   15,400;    0,000
330,656;   -0,100;   -0,100;    0,000
330,824;  -31,700;  -31,700;    0,000
330,991;   24,900;   24,900;    0,000
331,159;  -33,200;  -33,200;    0,000
331,326;   33,100;   33,100;    0,000
331,493;  -26,600;  -26,600;    0,000
331,661;   -0,100;   -0,100;    0,000
331,828;  -25,000;  -25,000;    0,000
331,995;    5,800;    5,800;    0,000
332,163;    2,500;    2,500;    0,000
332,330;   -3,100;   -3,100;    0,000
332,498;   -3,100;   -3,100;    0,000
332,665;   18,400;   18,400;    0,000
332,832;   18,800;   18,800;    0,000
333,000;   33,400;   33,400;    0,000
333,167;   13,700;   13,700;    0,000
333,334;   -2,000;   -2,000;    0,000
333,502;    2,200;    2,200;    0,000
333,669;  -14,400;  -14,400;    0,000
333,836;    9,400;    9,400;    0,000
334,004;   52,400;   52,400;    0,000
334,171;   12,200;   12,200;    0,000
334,338;   31,400;   31,400;    0,000
334,505;   -0,600;   -0,600;    0,000
334,673;    9,000;    9,000;    0,000
334,840;  -26,800;  -26,800;    0,000
335,007;   15,700;   15,700;    0,000
335,174;   -7,800;   -7,800;    0,000
335,342;   -5,800;   -5,800;    0,000
335,509;  -14,200;  -14,200;    0,000
335,676;   48,700;   48,700;    0,000
335,844;   -2,500;   -2,500;    0,000
336,011;   20,600;   20,600;    0,000
336,178;   52,800;   52,800;    0,000
336,345;   16,600;   16,600;    0,000
336,512;   37,600;   37,600;    0,000
336,680;   29,800;   29,800;    0,000
336,847;   23,200;   23,200;    0,000
337,014;   66,900;   66,900;    0,000
337,181;   73,900;   73,900;    0,000
337,348;   26,000;   26,000;    0,000
337,516;   36,300;   36,300;    0,000
337,683;    4,900;    4,900;    0,000
337,850;  -28,900;  -28,900;    0,000
338,017;   31,900;   31,900;    0,000
338,184;   11,100;   11,100;    0,000
338,351;   21,700;   21,700;    0,000
338,518;  -12,500;  -12,500;    0,000
338,686;   42,200;   42,200;    0,000
338,853;   -8,500;   -8,500;    0,000
339,020;   31,900;   31,900;    0,000
339,187;  -19,000;  -19,000;    0,000
339,354;  -24,200;  -24,200;    0,000
339,521;   31,600;   31,600;    0,000
339,688;   42,700;   42,700;    0,000
339,855;   -8,200;   -8,200;    0,000
340,022;   -0,800;   -0,800;    0,000
340,189;  -12,700;  -12,700;    0,000
340,356;    7,700;    7,700;    0,000
340,523;   53,900;   53,900;    0,000
340,691;   28,600;   28,600;    0,000
340,858;  -17,600;  -17,600;    0,000
341,025;   33,900;   33,900;    0,000
341,192;    5,300;    5,300;    0,000
341,359;   26,300;   26,300;    0,000
341,526;    6,800;    6,800;    0,000
341,693;    4,900;    4,900;    0,000
341,860;   36,700;   36,700;    0,000
342,027;   11,500;   11,500;    0,000
342,194;    4,500;    4,500;    0,000
342,361;   11,200;   11,200;    0,000
342,528;   19,900;   19,900;    0,000
342,695;   18,700;   18,700;    0,000
342,862;   21,900;   21,900;    0,000
343,029;   45,200;   45,200;    0,000
343,196;   24,200;   24,200;    0,000
343,362;   11,600;   11,600;    0,000
343,529;   37,700;   37,700;    0,000
343,696;   -3,700;   -3,700;    0,000
343,863;   37,100;   37,100;    0,000
344,030;   13,600;   13,600;    0,000
344,197;    3,800;    3,800;    0,000
344,364;   -4,000;   -4,000;    0,000
344,531;    8,800;    8,800;    0,000
344,698;   -5,500;   -5,500;    0,000
344,865;  -34,200;  -34,200;    0,000
345,032;   50,200;   50,200;    0,000
345,199;   16,200;   16,200;    0,000
345,365;  -23,500;  -23,500;    0,000
345,532;   17,700;   17,700;    0,000
345,699;   20,800;   20,800;    0,000
345,866;   31,700;   31,700;    0,000
346,033;   22,600;   22,600;    0,000
346,200;   -8,300;   -8,300;    0,000
346,366;   47,100;   47,100;    0,000
346,533;   53,400;   53,400;    0,000
346,700;   62,200;   62,200;    0,000
346,867;   -4,800;   -4,800;    0,000
347,034;   12,400;   12,400;    0,000
347,201;   14,200;   14,200;    0,000
347,367;    6,800;    6,800;    0,000
347,534;   45,200;   45,200;    0,000
347,701;   57,400;   57,400;    0,000
347,868;    6,600;    6,600;    0,000
348,034;   39,800;   39,800;    0,000
348,201;   12,700;   12,700;    0,000
348,368;   30,800;   30,800;    0,000
348,535;   40,300;   40,300;    0,000
348,701;   15,100;   15,100;    0,000
348,868;    0,000;    0,000;    0,000
349,035;   27,800;   27,800;    0,000
349,202;   13,600;   13,600;    0,000
349,368;   -0,700;   -0,700;    0,000
349,535;   16,500;   16,500;    0,000
349,702;   34,400;   34,400;    0,000
349,868;   20,200;   20,200;    0,000
350,035;   59,500;   59,500;    0,000
350,202;   25,900;   25,900;    0,000
350,369;   16,000;   16,000;    0,000
350,535;  -19,200;  -19,200;    0,000
350,702;   14,300;   14,300;    0,000
350,869;   11,900;   11,900;    0,000
351,035;   50,700;   50,700;    0,000
351,202;   65,700;   65,700;    0,000
351,368;    3,100;    3,100;    0,000
351,535;   54,900;   54,900;    0,000
351,702;   13,900;   13,900;    0,000
351,868;   29,400;   29,400;    0,000
352,035;   14,700;   14,700;    0,000
352,202;   43,000;   43,000;    0,000
352,368;    4,500;    4,500;    0,000
352,535;   20,700;   20,700;    0,000
352,701;   42,800;   42,800;    0,000
352,868;   52,000;   52,000;    0,000
353,035;  101,600;  101,600;    0,000
353,201;    9,200;    9,200;    0,000
353,368;   67,100;   67,100;    0,000
353,534;   89,600;   89,600;    0,000
353,701;   71,700;   71,700;    0,000
353,867;  -17,200;  -17,200;    0,000
354,034;   28,500;   28,500;    0,000
354,200;   54,200;   54,200;    0,000
354,367;   24,300;   24,300;    0,000
354,533;   48,400;   48,400;    0,000
354,700;   14,800;   14,800;    0,000
354,866;   24,300;   24,300;    0,000
355,033;   29,900;   29,900;    0,000
355,199;   30,300;   30,300;    0,000
355,366;   16,900;   16,900;    0,000
355,532;   22,200;   22,200;    0,000
355,699;   84,300;   84,300;    0,000
355,865;  -13,800;  -13,800;    0,000
356,032;   15,200;   15,200;    0,000
356,198;   61,100;   61,100;    0,000
356,365;   46,300;   46,300;    0,000
356,531;   49,400;   49,400;    0,000
356,698;   83,400;   83,400;    0,000
356,864;   73,900;   73,900;    0,000
357,030;   70,600;   70,600;    0,000
357,197;  124,500;  124,500;    0,000
357,363;   70,800;   70,800;    0,000
357,530;   78,000;   78,000;    0,000
357,696;  194,000;  194,000;    0,000
357,862;   28,000;   28,000;    0,000
358,029;   18,400;   18,400;    0,000
358,195;   36,800;   36,800;    0,000
358,362;   43,500;   43,500;    0,000
358,528;   45,500;   45,500;    0,000
358,694;   39,800;   39,800;    0,000
358,861;   35,000;   35,000;    0,000
359,027;   25,300;   25,300;    0,000
359,193;   22,600;   22,600;    0,000
359,360;    9,500;    9,500;    0,000
359,526;   51,200;   51,200;    0,000
359,692;   42,500;   42,500;    0,000
359,859;  -40,900;  -40,900;    0,000
360,025;    5,600;    5,600;    0,000
360,191;   34,100;   34,100;    0,000
360,357;  -22,800;  -22,800;    0,000
360,524;   33,700;   33,700;    0,000
360,690;   17,500;   17,500;    0,000
360,856;  -12,600;  -12,600;    0,000
361,023;   19,000;   19,000;    0,000
361,189;   56,100;   56,100;    0,000
361,355;   30,400;   30,400;    0,000
361,521;   29,700;   29,700;    0,000
361,688;   25,100;   25,100;    0,000
361,854;   50,700;   50,700;    0,000
362,020;   36,000;   36,000;    0,000
362,186;  -15,000;  -15,000;    0,000
362,352;   40,300;   40,300;    0,000
362,519;   10,400;   10,400;    0,000
362,685;   51,900;   51,900;    0,000
362,851;    5,300;    5,300;    0,000
363,017;   46,400;   46,400;    0,000
363,183;   38,600;   38,600;    0,000
363,350;   45,800;   45,800;    0,000
363,516;   15,100;   15,100;    0,000
363,682;   42,300;   42,300;    0,000
363,848;   31,100;   31,100;    0,000
364,014;   14,400;   14,400;    0,000
364,180;   36,400;   36,400;    0,000
364,347;   18,100;   18,100;    0,000
364,513;   -5,700;   -5,700;    0,000
364,679;    0,600;    0,600;    0,000
364,845;   44,900;   44,900;    0,000
365,011;   51,900;   51,900;    0,000
365,177;  -14,400;  -14,400;    0,000
365,343;   -1,900;   -1,900;    0,000
365,509;   16,000;   16,000;    0,000
365,675;   41,400;   41,400;    0,000
365,841;   10,800;   10,800;    0,000
366,008;   18,500;   18,500;    0,000
366,174;  -10,700;  -10,700;    0,000
366,340;    7,600;    7,600;    0,000
366,506;   16,100;   16,100;    0,000
366,672;   25,700;   25,700;    0,000
366,838;   38,600;   38,600;    0,000
367,004;   38,600;   38,600;    0,000
367,170;   25,400;   25,400;    0,000
367,336;   15,400;   15,400;    0,000
367,502;   12,400;   12,400;    0,000
367,668;   36,000;   36,000;    0,000
367,834;    7,000;    7,000;    0,000
368,000;   20,100;   20,100;    0,000
368,166;   12,200;   12,200;    0,000
368,332;   56,500;   56,500;    0,000
368,498;   32,300;   32,300;    0,000
368,664;   56,900;   56,900;    0,000
368,830;   55,300;   55,300;    0,000
368,996;   44,500;   44,500;    0,000
369,162;   11,200;   11,200;    0,000
369,328;   53,900;   53,900;    0,000
369,493;   10,000;   10,000;    0,000
369,659;   59,400;   59,400;    0,000
369,825;   48,000;   48,000;    0,000
369,991;   48,100;   48,100;    0,000
370,157;   23,700;   23,700;    0,000
370,323;   51,900;   51,900;    0,000
370,489;   40,900;   40,900;    0,000
370,655;   60,200;   60,200;    0,000
370,821;   46,600;   46,600;    0,000
370,987;   57,900;   57,900;    0,000
371,152;   64,100;   64,100;    0,000
371,318;   26,300;   26,300;    0,000
371,484;  -10,900;  -10,900;    0,000
371,650;   31,400;   31,400;    0,000
371,816;   16,900;   16,900;    0,000
371,982;   14,400;   14,400;    0,000
372,147;   25,700;   25,700;    0,000
372,313;   23,200;   23,200;    0,000
372,479;    6,300;    6,300;    0,000
372,645;   52,300;   52,300;    0,000
372,811;   -6,800;   -6,800;    0,000
372,977;   -2,500;   -2,500;    0,000
373,142;   19,600;   19,600;    0,000
373,308;   10,700;   10,700;    0,000
373,474;   48,800;   48,800;    0,000
373,640;   43,800;   43,800;    0,000
373,805;   10,800;   10,800;    0,000
373,971;   64,200;   64,200;    0,000
374,137;   32,700;   32,700;    0,000
374,303;   71,000;   71,000;    0,000
374,468;   43,600;   43,600;    0,000
374,634;   74,100;   74,100;    0,000
374,800;   37,200;   37,200;    0,000
374,966;   57,600;   57,600;    0,000
375,131;   31,100;   31,100;    0,000
375,297;   60,400;   60,400;    0,000
375,463;   50,700;   50,700;    0,000
375,628;   81,400;   81,400;    0,000
375,794;   56,200;   56,200;    0,000
375,960;   50,800;   50,800;    0,000
376,125;    3,000;    3,000;    0,000
376,291;   41,100;   41,100;    0,000
376,457;   -0,900;   -0,900;    0,000
376,622;   -0,500;   -0,500;    0,000
376,788;   31,600;   31,600;    0,000
376,954;   57,600;   57,600;    0,000
377,119;   40,800;   40,800;    0,000
377,285;    1,700;    1,700;    0,000
377,451;   29,200;   29,200;    0,000
377,616;   61,900;   61,900;    0,000
377,782;   49,600;   49,600;    0,000
377,947;    4,700;    4,700;    0,000
378,113;   38,700;   38,700;    0,000
378,279;   79,900;   79,900;    0,000
378,444;   38,700;   38,700;    0,000
378,610;   47,900;   47,900;    0,000
378,775;   58,900;   58,900;    0,000
378,941;   44,300;   44,300;    0,000
379,106;   -9,200;   -9,200;    0,000
379,272;   67,000;   67,000;    0,000
379,437;   -8,300;   -8,300;    0,000
379,603;   -3,800;   -3,800;    0,000
379,768;   46,500;   46,500;    0,000
379,934;   48,000;   48,000;    0,000
380,100;   23,600;   23,600;    0,000
380,265;   55,000;   55,000;    0,000
380,431;   64,600;   64,600;    0,000
380,596;   51,200;   51,200;    0,000
380,762;   56,200;   56,200;    0,000
380,927;  -15,400;  -15,400;    0,000
381,092;   27,300;   27,300;    0,000
381,258;   57,200;   57,200;    0,000
381,423;    2,800;    2,800;    0,000
381,589;   11,400;   11,400;    0,000
381,754;  -12,300;  -12,300;    0,000
381,920;   27,600;   27,600;    0,000
382,085;   47,100;   47,100;    0,000
382,251;   42,900;   42,900;    0,000
382,416;   -6,500;   -6,500;    0,000
382,581;   42,500;   42,500;    0,000
382,747;   18,200;   18,200;    0,000
382,912;   -7,000;   -7,000;    0,000
383,078;   15,100;   15,100;    0,000
383,243;    3,500;    3,500;    0,000
383,408;   22,400;   22,400;    0,000
383,574;   23,400;   23,400;    0,000
383,739;   42,500;   42,500;    0,000
383,904;   58,000;   58,000;    0,000
384,070;   21,900;   21,900;    0,000
384,235;   20,100;   20,100;    0,000
384,401;   52,300;   52,300;    0,000
384,566;   42,500;   42,500;    0,000
384,731;   41,800;   41,800;    0,000
384,896;   33,900;   33,900;    0,000
385,062;   24,900;   24,900;    0,000
385,227;   23,800;   23,800;    0,000
385,392;   67,000;   67,000;    0,000
385,558;   -0,900;   -0,900;    0,000
385,723;   15,000;   15,000;    0,000
385,888;   23,300;   23,300;    0,000
386,054;   44,200;   44,200;    0,000
386,219;   61,300;   61,300;    0,000
386,384;   34,000;   34,000;    0,000
386,549;   20,000;   20,000;    0,000
386,715;   65,500;   65,500;    0,000
386,880;   36,800;   36,800;    0,000
387,045;   24,500;   24,500;    0,000
387,210;   26,000;   26,000;    0,000
387,375;   23,700;   23,700;    0,000
387,541;   17,300;   17,300;    0,000
387,706;   24,200;   24,200;    0,000
387,871;   28,900;   28,900;    0,000
388,036;   10,400;   10,400;    0,000
388,201;   42,900;   42,900;    0,000
388,367;   23,600;   23,600;    0,000
388,532;   44,500;   44,500;    0,000
388,697;   45,900;   45,900;    0,000
388,862;   34,100;   34,100;    0,000
389,027;   43,600;   43,600;    0,000
389,192;   63,300;   63,300;    0,000
389,358;   17,900;   17,900;    0,000
389,523;   42,000;   42,000;    0,000
389,688;   45,000;   45,000;    0,000
389,853;    4,600;    4,600;    0,000
390,018;   -7,400;   -7,400;    0,000
390,183;    2,700;    2,700;    0,000
390,348;   -9,100;   -9,100;    0,000
390,513;   -3,500;   -3,500;    0,000
390,678;    4,800;    4,800;    0,000
390,844;    9,000;    9,000;    0,000
391,009;  -20,000;  -20,000;    0,000
391,174;   58,100;   58,100;    0,000
391,339;  -10,900;  -10,900;    0,000
391,504;   30,300;   30,300;    0,000
391,669;   -0,200;   -0,200;    0,000
391,834;   11,800;   11,800;    0,000
391,999;    4,800;    4,800;    0,000
392,164;   58,000;   58,000;    0,000
392,329;   17,900;   17,900;    0,000
392,494;    7,800;    7,800;    0,000
392,659;   41,400;   41,400;    0,000
392,824;   83,900;   83,900;    0,000
392,989;   18,300;   18,300;    0,000
393,154;   40,900;   40,900;    0,000
393,319;   83,600;   83,600;    0,000
393,484;   20,000;   20,000;    0,000
393,649;   34,700;   34,700;    0,000
393,814;   18,000;   18,000;    0,000
393,979;   40,600;   40,600;    0,000
394,144;   41,600;   41,600;    0,000
394,309;   52,800;   52,800;    0,000
394,474;   64,600;   64,600;    0,000
394,639;   29,400;   29,400;    0,000
394,804;  108,800;  108,800;    0,000
394,968;    6,600;    6,600;    0,000
395,133;   43,000;   43,000;    0,000
395,298;   23,200;   23,200;    0,000
395,463;   63,000;   63,000;    0,000
395,628;   -8,400;   -8,400;    0,000
395,793;  102,500;  102,500;    0,000
395,958;   55,000;   55,000;    0,000
396,123;   22,100;   22,100;    0,000
396,288;   28,300;   28,300;    0,000
396,452;   25,500;   25,500;    0,000
396,617;  -18,800;  -18,800;    0,000
396,782;   29,000;   29,000;    0,000
396,947;   88,400;   88,400;    0,000
397,112;   87,600;   87,600;    0,000
397,277;   40,300;   40,300;    0,000
397,441;   10,500;   10,500;    0,000
397,606;   29,500;   29,500;    0,000
397,771;   57,200;   57,200;    0,000
397,936;    0,500;    0,500;    0,000
398,101;   16,100;   16,100;    0,000
398,265;   -0,100;   -0,100;    0,000
398,430;   31,500;   31,500;    0,000
398,595;   19,100;   19,100;    0,000
398,760;    4,100;    4,100;    0,000
398,924;   34,900;   34,900;    0,000
399,089;   21,700;   21,700;    0,000
399,254;    9,100;    9,100;    0,000
399,419;   35,200;   35,200;    0,000
399,583;   73,300;   73,300;    0,000
399,748;   42,200;   42,200;    0,000
399,913;   29,700;   29,700;    0,000
400,077;    1,400;    1,400;    0,000
400,242;    1,600;    1,600;    0,000
400,407;   26,200;   26,200;    0,000
400,572;  -16,000;  -16,000;    0,000
400,736;    8,500;    8,500;    0,000
400,901;   34,000;   34,000;    0,000
401,066;   -1,000;   -1,000;    0,000
401,230;    3,800;    3,800;    0,000
401,395;   27,400;   27,400;    0,000
401,559;   23,300;   23,300;    0,000
401,724;   25,100;   25,100;    0,000
401,889;   18,600;   18,600;    0,000
402,053;    1,100;    1,100;    0,000
402,218;   61,100;   61,100;    0,000
402,383;    7,500;    7,500;    0,000
402,547;   -8,100;   -8,100;    0,000
402,712;   47,100;   47,100;    0,000
402,876;   19,500;   19,500;    0,000
403,041;   44,200;   44,200;    0,000
403,206;   15,900;   15,900;    0,000
403,370;   15,000;   15,000;    0,000
403,535;    6,400;    6,400;    0,000
403,699;    2,800;    2,800;    0,000
403,864;    6,900;    6,900;    0,000
404,028;   30,800;   30,800;    0,000
404,193;  114,900;  114,900;    0,000
404,357;   42,800;   42,800;    0,000
404,522;   20,900;   20,900;    0,000
404,686;   -5,300;   -5,300;    0,000
404,851;   14,400;   14,400;    0,000
405,015;   31,300;   31,300;    0,000
405,180;   14,400;   14,400;    0,000
405,344;   22,800;   22,800;    0,000
405,509;   23,300;   23,300;    0,000
405,673;   47,100;   47,100;    0,000
405,838;    5,700;    5,700;    0,000
406,002;   48,200;   48,200;    0,000
406,167;   -8,900;   -8,900;    0,000
406,331;   56,500;   56,500;    0,000
406,496;   37,900;   37,900;    0,000
406,660;    7,600;    7,600;    0,000
406,825;   76,900;   76,900;    0,000
406,989;   20,800;   20,800;    0,000
407,153;   53,700;   53,700;    0,000
407,318;    8,000;    8,000;    0,000
407,482;   -2,800;   -2,800;    0,000
407,647;    7,900;    7,900;    0,000
407,811;   -1,000;   -1,000;    0,000
407,975;   33,000;   33,000;    0,000
408,140;   34,600;   34,600;    0,000
408,304;   21,700;   21,700;    0,000
408,469;   37,100;   37,100;    0,000
408,633;   79,700;   79,700;    0,000
408,797;   -7,600;   -7,600;    0,000
408,962;   26,300;   26,300;    0,000
409,126;   29,900;   29,900;    0,000
409,290;   84,800;   84,800;    0,000
409,455;   12,400;   12,400;    0,000
409,619;   31,800;   31,800;    0,000
409,783;   29,300;   29,300;    0,000
409,947;  100,500;  100,500;    0,000
410,112;  222,000;  222,000;    0,000
410,276;  342,600;  342,600;    0,000
410,440;  130,500;  130,500;    0,000
410,605;   16,600;   16,600;    0,000
410,769;   24,200;   24,200;    0,000
410,933;   14,200;   14,200;    0,000
411,097;  -15,100;  -15,100;    0,000
411,262;   48,300;   48,300;    0,000
411,426;    2,900;    2,900;    0,000
411,590;   25,300;   25,300;    0,000
411,754;    5,400;    5,400;    0,000
411,919;   -2,200;   -2,200;    0,000
412,083;   10,000;   10,000;    0,000
412,247;   25,600;   25,600;    0,000
412,411;   66,000;   66,000;    0,000
412,575;   23,300;   23,300;    0,000
412,740;  -11,500;  -11,500;    0,000
412,904;   17,300;   17,300;    0,000
413,068;   23,200;   23,200;    0,000
413,232;   -5,400;   -5,400;    0,000
413,396;   23,400;   23,400;    0,000
413,560;    1,800;    1,800;    0,000
413,724;   53,300;   53,300;    0,000
413,889;   47,200;   47,200;    0,000
414,053;    2,300;    2,300;    0,000
414,217;   45,100;   45,100;    0,000
414,381;   19,100;   19,100;    0,000
414,545;   39,600;   39,600;    0,000
414,709;    0,800;    0,800;    0,000
414,873;   37,600;   37,600;    0,000
415,037;   72,800;   72,800;    0,000
415,201;   45,900;   45,900;    0,000
415,366;    3,000;    3,000;    0,000
415,530;    6,600;    6,600;    0,000
415,694;    2,800;    2,800;    0,000
415,858;   38,700;   38,700;    0,000
416,022;   26,700;   26,700;    0,000
416,186;   22,400;   22,400;    0,000
416,350;   13,200;   13,200;    0,000
416,514;   27,000;   27,000;    0,000
416,678;   51,000;   51,000;    0,000
416,842;    9,600;    9,600;    0,000
417,006;  -10,400;  -10,400;    0,000
417,170;   41,500;   41,500;    0,000
417,334;   61,400;   61,400;    0,000
417,498;   26,500;   26,500;    0,000
417,662;   29,600;   29,600;    0,000
417,826;   12,900;   12,900;    0,000
417,990;   39,200;   39,200;    0,000
418,154;   44,000;   44,000;    0,000
418,318;    1,200;    1,200;    0,000
418,482;   25,600;   25,600;    0,000
418,646;   14,900;   14,900;    0,000
418,810;   28,600;   28,600;    0,000
418,974;   32,500;   32,500;    0,000
419,137;   -3,500;   -3,500;    0,000
419,301;   20,400;   20,400;    0,000
419,465;   11,200;   11,200;    0,000
419,629;   -7,200;   -7,200;    0,000
419,793;   23,500;   23,500;    0,000
419,957;   18,800;   18,800;    0,000
420,121;   46,000;   46,000;    0,000
420,285;   27,900;   27,900;    0,000
420,449;   22,500;   22,500;    0,000
420,612;   23,300;   23,300;    0,000
420,776;   46,000;   46,000;    0,000
420,940;   70,100;   70,100;    0,000
421,104;   -0,200;   -0,200;    0,000
421,268;   23,400;   23,400;    0,000
421,432;   14,800;   14,800;    0,000
421,595;   26,000;   26,000;    0,000
421,759;   71,500;   71,500;    0,000
421,923;  -19,800;  -19,800;    0,000
422,087;   66,100;   66,100;    0,000
422,251;   -8,600;   -8,600;    0,000
422,414;   53,300;   53,300;    0,000
422,578;   16,800;   16,800;    0,000
422,742;   41,300;   41,300;    0,000
422,906;   -1,900;   -1,900;    0,000
423,069;   41,000;   41,000;    0,000
423,233;   24,000;   24,000;    0,000
423,397;   11,800;   11,800;    0,000
423,561;   10,500;   10,500;    0,000
423,724;   19,700;   19,700;    0,000
423,888;  -12,100;  -12,100;    0,000
424,052;  -14,600;  -14,600;    0,000
424,216;   27,200;   27,200;    0,000
424,379;   60,200;   60,200;    0,000
424,543;    8,100;    8,100;    0,000
424,707;   21,000;   21,000;    0,000
424,870;    0,100;    0,100;    0,000
425,034;    7,800;    7,800;    0,000
425,198;   13,300;   13,300;    0,000
425,361;    5,200;    5,200;    0,000
425,525;   13,900;   13,900;    0,000
425,689;   62,600;   62,600;    0,000
425,852;   -0,800;   -0,800;    0,000
426,016;   25,200;   25,200;    0,000
426,179;   13,000;   13,000;    0,000
426,343;   36,800;   36,800;    0,000
426,507;   18,900;   18,900;    0,000
426,670;   -3,500;   -3,500;    0,000
426,834;   -7,400;   -7,400;    0,000
426,997;  -16,400;  -16,400;    0,000
427,161;  -16,000;  -16,000;    0,000
427,325;    8,800;    8,800;    0,000
427,488;   12,000;   12,000;    0,000
427,652;   74,400;   74,400;    0,000
427,815;    8,600;    8,600;    0,000
427,979;   61,200;   61,200;    0,000
428,142;   23,000;   23,000;    0,000
428,306;    7,100;    7,100;    0,000
428,470;   20,200;   20,200;    0,000
428,633;   12,400;   12,400;    0,000
428,797;   23,600;   23,600;    0,000
428,960;   13,600;   13,600;    0,000
429,124;   11,400;   11,400;    0,000
429,287;   33,600;   33,600;    0,000
429,451;   -9,300;   -9,300;    0,000
429,614;   33,200;   33,200;    0,000
429,777;  -10,900;  -10,900;    0,000
429,941;   -5,500;   -5,500;    0,000
430,104;   -2,400;   -2,400;    0,000
430,268;   37,800;   37,800;    0,000
430,431;   16,300;   16,300;    0,000
430,595;   11,400;   11,400;    0,000
430,758;   42,800;   42,800;    0,000
430,922;   27,700;   27,700;    0,000
431,085;   41,100;   41,100;    0,000
431,248;  -13,700;  -13,700;    0,000
431,412;   51,300;   51,300;    0,000
431,575;   36,700;   36,700;    0,000
431,739;  -37,900;  -37,900;    0,000
431,902;   82,800;   82,800;    0,000
432,065;   60,900;   60,900;    0,000
432,229;   12,900;   12,900;    0,000
432,392;   19,400;   19,400;    0,000
432,555;   17,900;   17,900;    0,000
432,719;   35,100;   35,100;    0,000
432,882;   39,100;   39,100;    0,000
433,045;    7,200;    7,200;    0,000
433,209;   36,700;   36,700;    0,000
433,372;   51,800;   51,800;    0,000
433,535;   67,500;   67,500;    0,000
433,699;   58,100;   58,100;    0,000
433,862;  313,200;  313,200;    0,000
434,025;  934,900;  934,900;    0,000
434,189; 1290,300; 1290,300;    0,000
434,352;  335,500;  335,500;    0,000
434,515;   21,700;   21,700;    0,000
434,678;   34,000;   34,000;    0,000
434,842;   28,400;   28,400;    0,000
435,005;   27,100;   27,100;    0,000
435,168;    3,700;    3,700;    0,000
435,331;   24,100;   24,100;    0,000
435,495;   28,400;   28,400;    0,000
435,658;   11,500;   11,500;    0,000
435,821;   49,300;   49,300;    0,000
435,984;    7,900;    7,900;    0,000
436,148;   10,100;   10,100;    0,000
436,311;   33,500;   33,500;    0,000
436,474;   17,400;   17,400;    0,000
436,637;   39,400;   39,400;    0,000
436,800;   69,900;   69,900;    0,000
436,963;  139,200;  139,200;    0,000
437,127;   63,800;   63,800;    0,000
437,290;   44,300;   44,300;    0,000
437,453;   29,300;   29,300;    0,000
437,616;    6,700;    6,700;    0,000
437,779;    4,900;    4,900;    0,000
437,942;   -2,800;   -2,800;    0,000
438,105;   12,100;   12,100;    0,000
438,268;   31,000;   31,000;    0,000
438,432;   28,000;   28,000;    0,000
438,595;   13,100;   13,100;    0,000
438,758;  -28,000;  -28,000;    0,000
438,921;   24,600;   24,600;    0,000
439,084;   90,200;   90,200;    0,000
439,247;  -20,900;  -20,900;    0,000
439,410;   35,500;   35,500;    0,000
439,573;   11,400;   11,400;    0,000
439,736;   20,300;   20,300;    0,000
439,899;   12,700;   12,700;    0,000
440,062;    4,000;    4,000;    0,000
440,225;   11,000;   11,000;    0,000
440,388;   41,900;   41,900;    0,000
440,551;    9,500;    9,500;    0,000
440,714;   24,100;   24,100;    0,000
440,877;    1,300;    1,300;    0,000
441,040;   19,000;   19,000;    0,000
441,203;  -22,200;  -22,200;    0,000
441,366;   25,500;   25,500;    0,000
441,529;   40,200;   40,200;    0,000
441,692;   12,300;   12,300;    0,000
441,855;   17,800;   17,800;    0,000
442,018;  -14,300;  -14,300;    0,000
442,181;    2,300;    2,300;    0,000
442,344;   38,500;   38,500;    0,000
442,507;    8,300;    8,300;    0,000
442,670;   43,800;   43,800;    0,000
442,833;  -32,000;  -32,000;    0,000
442,996;   39,200;   39,200;    0,000
443,159;    5,300;    5,300;    0,000
443,322;    4,300;    4,300;    0,000
443,484;   26,300;   26,300;    0,000
443,647;  -11,700;  -11,700;    0,000
443,810;    1,000;    1,000;    0,000
443,973;    7,100;    7,100;    0,000
444,136;   -8,000;   -8,000;    0,000
444,299;    0,200;    0,200;    0,000
444,462;  -19,700;  -19,700;    0,000
444,624;   38,600;   38,600;    0,000
444,787;    0,000;    0,000;    0,000
444,950;   31,500;   31,500;    0,000
445,113;   37,700;   37,700;    0,000
445,276;   -0,200;   -0,200;    0,000
445,439;   44,800;   44,800;    0,000
445,601;   23,800;   23,800;    0,000
445,764;   73,500;   73,500;    0,000
445,927;   12,000;   12,000;    0,000
446,090;   22,900;   22,900;    0,000
446,252;   16,200;   16,200;    0,000
446,415;    7,200;    7,200;    0,000
446,578;   53,000;   53,000;    0,000
446,741;  -22,600;  -22,600;    0,000
446,903;    1,800;    1,800;    0,000
447,066;    1,200;    1,200;    0,000
447,229;   45,300;   45,300;    0,000
447,392;   18,600;   18,600;    0,000
447,554;    9,900;    9,900;    0,000
447,717;  -15,000;  -15,000;    0,000
447,880;    9,100;    9,100;    0,000
448,042;   30,500;   30,500;    0,000
448,205;  -11,500;  -11,500;    0,000
448,368;   11,100;   11,100;    0,000
448,530;   15,300;   15,300;    0,000
448,693;   -4,200;   -4,200;    0,000
448,856;    9,300;    9,300;    0,000
449,018;   -4,200;   -4,200;    0,000
449,181;    6,800;    6,800;    0,000
449,344;   -1,200;   -1,200;    0,000
449,506;   14,500;   14,500;    0,000
449,669;   68,400;   68,400;    0,000
449,832;   32,200;   32,200;    0,000
449,994;   42,500;   42,500;    0,000
450,157;   36,000;   36,000;    0,000
450,319;    8,700;    8,700;    0,000
450,482;   44,500;   44,500;    0,000
450,645;   -4,700;   -4,700;    0,000
450,807;   12,000;   12,000;    0,000
450,970;  -18,500;  -18,500;    0,000
451,132;   -3,400;   -3,400;    0,000
451,295;   11,800;   11,800;    0,000
451,457;  -10,600;  -10,600;    0,000
451,620;    4,300;    4,300;    0,000
451,782;    9,400;    9,400;    0,000
451,945;   11,500;   11,500;    0,000
452,107;  -22,900;  -22,900;    0,000
452,270;   18,000;   18,000;    0,000
452,432;   18,100;   18,100;    0,000
452,595;  -12,600;  -12,600;    0,000
452,757;   20,900;   20,900;    0,000
452,920;   12,600;   12,600;    0,000
453,082;    8,800;    8,800;    0,000
453,245;   18,900;   18,900;    0,000
453,407;   82,300;   82,300;    0,000
453,570;   30,300;   30,300;    0,000
453,732;   24,300;   24,300;    0,000
453,895;   53,200;   53,200;    0,000
454,057;  -31,300;  -31,300;    0,000
454,220;   18,800;   18,800;    0,000
454,382;   38,600;   38,600;    0,000
454,544;   36,100;   36,100;    0,000
454,707;   41,000;   41,000;    0,000
454,869;    2,500;    2,500;    0,000
455,032;   -6,600;   -6,600;    0,000
455,194;   13,400;   13,400;    0,000
455,356;   27,300;   27,300;    0,000
455,519;    1,600;    1,600;    0,000
455,681;  -17,900;  -17,900;    0,000
455,843;   40,900;   40,900;    0,000
456,006;   55,300;   55,300;    0,000
456,168;   34,000;   34,000;    0,000
456,330;    2,400;    2,400;    0,000
456,493;  -17,200;  -17,200;    0,000
456,655;   40,700;   40,700;    0,000
456,817;   48,500;   48,500;    0,000
456,980;   37,400;   37,400;    0,000
457,142;   21,600;   21,600;    0,000
457,304;   54,700;   54,700;    0,000
457,467;   -5,800;   -5,800;    0,000
457,629;   -2,500;   -2,500;    0,000
457,791;   11,600;   11,600;    0,000
457,953;   53,100;   53,100;    0,000
458,116;   32,900;   32,900;    0,000
458,278;   63,700;   63,700;    0,000
458,440;   14,200;   14,200;    0,000
458,602;   11,800;   11,800;    0,000
458,765;   -7,700;   -7,700;    0,000
458,927;   -4,500;   -4,500;    0,000
459,089;   59,500;   59,500;    0,000
459,251;  -27,200;  -27,200;    0,000
459,413;  -32,500;  -32,500;    0,000
459,576;   45,600;   45,600;    0,000
459,738;  -17,400;  -17,400;    0,000
459,900;    2,800;    2,800;    0,000
460,062;   27,200;   27,200;    0,000
460,224;   14,200;   14,200;    0,000
460,386;    6,600;    6,600;    0,000
460,549;   11,900;   11,900;    0,000
460,711;   64,400;   64,400;    0,000
460,873;   20,300;   20,300;    0,000
461,035;   31,100;   31,100;    0,000
461,197;    9,000;    9,000;    0,000
461,359;   -5,000;   -5,000;    0,000
461,521;   60,200;   60,200;    0,000
461,683;   15,900;   15,900;    0,000
461,846;  -14,400;  -14,400;    0,000
462,008;   66,400;   66,400;    0,000
462,170;   12,400;   12,400;    0,000
462,332;    3,300;    3,300;    0,000
462,494;    1,800;    1,800;    0,000
462,656;   34,400;   34,400;    0,000
462,818;   41,800;   41,800;    0,000
462,980;   20,300;   20,300;    0,000
463,142;   -6,800;   -6,800;    0,000
463,304;   38,700;   38,700;    0,000
463,466;   45,200;   45,200;    0,000
463,628;   23,500;   23,500;    0,000
463,790;   24,500;   24,500;    0,000
463,952;   -1,100;   -1,100;    0,000
464,114;   27,400;   27,400;    0,000
464,276;   -3,300;   -3,300;    0,000
464,438;  -41,000;  -41,000;    0,000
464,600;   25,300;   25,300;    0,000
464,762;   15,700;   15,700;    0,000
464,924;   -5,200;   -5,200;    0,000
465,086;   16,400;   16,400;    0,000
465,248;    2,000;    2,000;    0,000
465,410;   17,700;   17,700;    0,000
465,572;   -7,500;   -7,500;    0,000
465,734;   19,800;   19,800;    0,000
465,896;  -32,000;  -32,000;    0,000
466,057;   -8,700;   -8,700;    0,000
466,219;   51,100;   51,100;    0,000
466,381;   12,600;   12,600;    0,000
466,543;   18,400;   18,400;    0,000
466,705;   14,700;   14,700;    0,000
466,867;    5,800;    5,800;    0,000
467,029;   11,400;   11,400;    0,000
467,191;  -25,800;  -25,800;    0,000
467,352;   44,300;   44,300;    0,000
467,514;   17,800;   17,800;    0,000
467,676;  -19,600;  -19,600;    0,000
467,838;   21,900;   21,900;    0,000
468,000;   14,200;   14,200;    0,000
468,162;   22,000;   22,000;    0,000
468,323;    5,500;    5,500;    0,000
468,485;  -18,500;  -18,500;    0,000
468,647;   33,600;   33,600;    0,000
468,809;    5,400;    5,400;    0,000
468,970;   26,400;   26,400;    0,000
469,132;   18,800;   18,800;    0,000
469,294;   -2,100;   -2,100;    0,000
469,456;    3,000;    3,000;    0,000
469,618;   28,100;   28,100;    0,000
469,779;  -37,600;  -37,600;    0,000
469,941;   35,100;   35,100;    0,000
470,103;   -2,200;   -2,200;    0,000
470,264;    7,700;    7,700;    0,000
470,426;  -20,500;  -20,500;    0,000
470,588;   21,900;   21,900;    0,000
470,750;   17,400;   17,400;    0,000
470,911;   -7,600;   -7,600;    0,000
471,073;  -11,900;  -11,900;    0,000
471,235;   35,300;   35,300;    0,000
471,396;  -14,500;  -14,500;    0,000
471,558;   10,500;   10,500;    0,000
471,720;   59,700;   59,700;    0,000
471,881;   21,100;   21,100;    0,000
472,043;   28,200;   28,200;    0,000
472,205;   -7,300;   -7,300;    0,000
472,366;  -10,800;  -10,800;    0,000
472,528;   -2,600;   -2,600;    0,000
472,689;   10,900;   10,900;    0,000
472,851;   21,400;   21,400;    0,000
473,013;   20,700;   20,700;    0,000
473,174;   18,600;   18,600;    0,000
473,336;   36,000;   36,000;    0,000
473,497;   21,600;   21,600;    0,000
473,659;    1,000;    1,000;    0,000
473,820;   15,000;   15,000;    0,000
473,982;  -18,300;  -18,300;    0,000
474,144;   14,800;   14,800;    0,000
474,305;   25,600;   25,600;    0,000
474,467;   28,800;   28,800;    0,000
474,628;   30,300;   30,300;    0,000
474,790;   14,400;   14,400;    0,000
474,951;   -3,200;   -3,200;    0,000
475,113;   36,700;   36,700;    0,000
475,274;    9,300;    9,300;    0,000
475,436;   49,700;   49,700;    0,000
475,597;    8,600;    8,600;    0,000
475,759;   -3,500;   -3,500;    0,000
475,920;  -27,000;  -27,000;    0,000
476,082;   14,300;   14,300;    0,000
476,243;   13,700;   13,700;    0,000
476,404;   18,700;   18,700;    0,000
476,566;   -0,400;   -0,400;    0,000
476,727;    2,200;    2,200;    0,000
476,889;    8,500;    8,500;    0,000
477,050;    7,800;    7,800;    0,000
477,212;   91,100;   91,100;    0,000
477,373;   31,500;   31,500;    0,000
477,534;   -4,600;   -4,600;    0,000
477,696;   -4,700;   -4,700;    0,000
477,857;    8,500;    8,500;    0,000
478,019;  -26,000;  -26,000;    0,000
478,180;   18,600;   18,600;    0,000
478,341;   17,700;   17,700;    0,000
478,503;  -16,300;  -16,300;    0,000
478,664;   -2,500;   -2,500;    0,000
478,825;  -18,800;  -18,800;    0,000
478,987;   24,000;   24,000;    0,000
479,148;    6,800;    6,800;    0,000
479,309;    9,500;    9,500;    0,000
479,471;  -13,200;  -13,200;    0,000
479,632;   15,400;   15,400;    0,000
479,793;   24,300;   24,300;    0,000
479,954;  -10,400;  -10,400;    0,000
480,116;  -36,600;  -36,600;    0,000
480,277;   28,800;   28,800;    0,000
480,438;    8,700;    8,700;    0,000
480,600;   21,100;   21,100;    0,000
480,761;   68,400;   68,400;    0,000
480,922;   12,700;   12,700;    0,000
481,083;  -11,500;  -11,500;    0,000
481,245;   -1,100;   -1,100;    0,000
481,406;   45,100;   45,100;    0,000
481,567;   15,500;   15,500;    0,000
481,728;   39,200;   39,200;    0,000
481,889;  -14,700;  -14,700;    0,000
482,051;   10,000;   10,000;    0,000
482,212;   48,400;   48,400;    0,000
482,373;   29,400;   29,400;    0,000
482,534;   38,800;   38,800;    0,000
482,695;    4,400;    4,400;    0,000
482,856;   45,200;   45,200;    0,000
483,018;   52,700;   52,700;    0,000
483,179;  132,500;  132,500;    0,000
483,340;   -1,300;   -1,300;    0,000
483,501;   36,900;   36,900;    0,000
483,662;   37,500;   37,500;    0,000
483,823;   -8,000;   -8,000;    0,000
483,984;   20,000;   20,000;    0,000
484,145;   26,400;   26,400;    0,000
484,306;   25,500;   25,500;    0,000
484,468;   56,700;   56,700;    0,000
484,629;   39,100;   39,100;    0,000
484,790;   26,800;   26,800;    0,000
484,951;   39,300;   39,300;    0,000
485,112;   87,100;   87,100;    0,000
485,273;   65,200;   65,200;    0,000
485,434;   68,900;   68,900;    0,000
485,595;  134,000;  134,000;    0,000
485,756;  286,300;  286,300;    0,000
485,917; 1045,400; 1045,400;    0,000
486,078; 6868,900; 6868,900;    0,000
486,239;13538,700;13538,700;    0,000
486,400; 4244,300; 4244,300;    0,000
486,561;  763,200;  763,200;    0,000
486,722;  254,200;  254,200;    0,000
486,883;  133,000;  133,000;    0,000
487,044;   73,900;   73,900;    0,000
487,205;   94,900;   94,900;    0,000
487,366;   24,400;   24,400;    0,000
487,527;   69,800;   69,800;    0,000
487,688;   33,000;   33,000;    0,000
487,849;   41,600;   41,600;    0,000
488,010;   32,400;   32,400;    0,000
488,170;   31,600;   31,600;    0,000
488,331;   42,400;   42,400;    0,000
488,492;    4,500;    4,500;    0,000
488,653;   15,100;   15,100;    0,000
488,814;  -44,500;  -44,500;    0,000
488,975;   45,900;   45,900;    0,000
489,136;   11,600;   11,600;    0,000
489,297;   26,400;   26,400;    0,000
489,458;   28,600;   28,600;    0,000
489,618;   10,000;   10,000;    0,000
489,779;   20,300;   20,300;    0,000
489,940;    2,000;    2,000;    0,000
490,101;   -6,600;   -6,600;    0,000
490,262;   79,000;   79,000;    0,000
490,423;   37,800;   37,800;    0,000
490,583;   24,400;   24,400;    0,000
490,744;   45,200;   45,200;    0,000
490,905;   23,500;   23,500;    0,000
491,066;   32,400;   32,400;    0,000
491,227;   33,800;   33,800;    0,000
491,387;    0,900;    0,900;    0,000
491,548;    1,100;    1,100;    0,000
491,709;   81,300;   81,300;    0,000
491,870;   29,700;   29,700;    0,000
492,030;   25,600;   25,600;    0,000
492,191;    4,800;    4,800;    0,000
492,352;   24,600;   24,600;    0,000
492,512;   75,900;   75,900;    0,000
492,673;   41,200;   41,200;    0,000
492,834;   17,800;   17,800;    0,000
492,995;   49,200;   49,200;    0,000
493,155;   39,900;   39,900;    0,000
493,316;   -7,200;   -7,200;    0,000
493,477;   34,500;   34,500;    0,000
493,637;   24,100;   24,100;    0,000
493,798;   -1,000;   -1,000;    0,000
493,959;   14,700;   14,700;    0,000
494,119;   13,700;   13,700;    0,000
494,280;   -3,900;   -3,900;    0,000
494,441;   40,000;   40,000;    0,000
494,601;   42,500;   42,500;    0,000
494,762;   44,300;   44,300;    0,000
494,922;  -24,100;  -24,100;    0,000
495,083;   86,200;   86,200;    0,000
495,244;   29,000;   29,000;    0,000
495,404;   50,100;   50,100;    0,000
495,565;  -13,000;  -13,000;    0,000
495,725;   35,400;   35,400;    0,000
495,886;  -12,000;  -12,000;    0,000
496,046;   24,600;   24,600;    0,000
496,207;  -17,300;  -17,300;    0,000
496,368;  -11,900;  -11,900;    0,000
496,528;   30,800;   30,800;    0,000
496,689;   41,600;   41,600;    0,000
496,849;   56,300;   56,300;    0,000
497,010;   -0,400;   -0,400;    0,000
497,170;   10,900;   10,900;    0,000
497,331;    8,100;    8,100;    0,000
497,491;   15,900;   15,900;    0,000
497,652;  -18,100;  -18,100;    0,000
497,812;   27,800;   27,800;    0,000
497,973;   11,000;   11,000;    0,000
498,133;    2,700;    2,700;    0,000
498,293;   24,900;   24,900;    0,000
498,454;    5,000;    5,000;    0,000
498,614;    6,800;    6,800;    0,000
498,775;    0,600;    0,600;    0,000
498,935;   29,500;   29,500;    0,000
499,096;   26,700;   26,700;    0,000
499,256;   13,100;   13,100;    0,000
499,416;  -16,000;  -16,000;    0,000
499,577;    0,300;    0,300;    0,000
499,737;   18,600;   18,600;    0,000
499,898;   21,600;   21,600;    0,000
500,058;   -2,300;   -2,300;    0,000
500,218;   43,800;   43,800;    0,000
500,379;   -1,100;   -1,100;    0,000
500,539;   28,500;   28,500;    0,000
500,699;   44,400;   44,400;    0,000
500,860;  -13,500;  -13,500;    0,000
501,020;    2,400;    2,400;    0,000
501,180;   13,900;   13,900;    0,000
501,341;    4,600;    4,600;    0,000
501,501;   42,600;   42,600;    0,000
501,661;  -15,700;  -15,700;    0,000
501,822;   62,600;   62,600;    0,000
501,982;   28,700;   28,700;    0,000
502,142;   32,800;   32,800;    0,000
502,302;  -14,200;  -14,200;    0,000
502,463;   13,000;   13,000;    0,000
502,623;  -40,400;  -40,400;    0,000
502,783;   30,400;   30,400;    0,000
502,943;   19,600;   19,600;    0,000
503,104;   16,900;   16,900;    0,000
503,264;   18,800;   18,800;    0,000
503,424;   22,100;   22,100;    0,000
503,584;    4,300;    4,300;    0,000
503,745;   41,300;   41,300;    0,000
503,905;    5,800;    5,800;    0,000
504,065;  -27,300;  -27,300;    0,000
504,225;    3,700;    3,700;    0,000
504,385;   31,300;   31,300;    0,000
504,545;   27,400;   27,400;    0,000
504,706;  -14,600;  -14,600;    0,000
504,866;  -24,000;  -24,000;    0,000
505,026;   12,500;   12,500;    0,000
505,186;   32,700;   32,700;    0,000
505,346;   22,900;   22,900;    0,000
505,506;  -17,600;  -17,600;    0,000
505,666;    4,400;    4,400;    0,000
505,826;   32,300;   32,300;    0,000
505,987;   18,000;   18,000;    0,000
506,147;   31,300;   31,300;    0,000
506,307;   20,900;   20,900;    0,000
506,467;   55,100;   55,100;    0,000
506,627;   14,000;   14,000;    0,000
506,787;   -6,300;   -6,300;    0,000
506,947;   21,400;   21,400;    0,000
507,107;   12,100;   12,100;    0,000
507,267;  -11,800;  -11,800;    0,000
507,427;    1,600;    1,600;    0,000
507,587;   22,300;   22,300;    0,000
507,747;    3,700;    3,700;    0,000
507,907;   29,400;   29,400;    0,000
508,067;   35,600;   35,600;    0,000
508,227;   21,800;   21,800;    0,000
508,387;   28,600;   28,600;    0,000
508,547;   -2,800;   -2,800;    0,000
508,707;   17,600;   17,600;    0,000
508,867;   -3,800;   -3,800;    0,000
509,027;  -15,600;  -15,600;    0,000
509,187;   35,400;   35,400;    0,000
509,347;   31,700;   31,700;    0,000
509,507;   11,700;   11,700;    0,000
509,667;  -29,000;  -29,000;    0,000
509,827;   27,900;   27,900;    0,000
509,987;    4,800;    4,800;    0,000
510,147;   19,200;   19,200;    0,000
510,306;   -2,900;   -2,900;    0,000
510,466;   11,800;   11,800;    0,000
510,626;    3,400;    3,400;    0,000
510,786;   32,000;   32,000;    0,000
510,946;   31,900;   31,900;    0,000
511,106;    8,300;    8,300;    0,000
511,266;    4,200;    4,200;    0,000
511,426;   13,700;   13,700;    0,000
511,585;  -13,800;  -13,800;    0,000
511,745;  -20,200;  -20,200;    0,000
511,905;  -26,900;  -26,900;    0,000
512,065;   18,500;   18,500;    0,000
512,225;    4,300;    4,300;    0,000
512,384;   16,100;   16,100;    0,000
512,544;   10,700;   10,700;    0,000
512,704;    1,500;    1,500;    0,000
512,864;    4,600;    4,600;    0,000
513,024;   18,200;   18,200;    0,000
513,183;   19,700;   19,700;    0,000
513,343;    2,300;    2,300;    0,000
513,503;   37,400;   37,400;    0,000
513,663;    7,900;    7,900;    0,000
513,822;   25,300;   25,300;    0,000
513,982;   30,700;   30,700;    0,000
514,142;   -4,700;   -4,700;    0,000
514,301;   49,000;   49,000;    0,000
514,461;   29,400;   29,400;    0,000
514,621;   -3,400;   -3,400;    0,000
514,781;   24,100;   24,100;    0,000
514,940;   46,300;   46,300;    0,000
515,100;   -7,200;   -7,200;    0,000
515,260;   21,100;   21,100;    0,000
515,419;   14,100;   14,100;    0,000
515,579;   22,800;   22,800;    0,000
515,739;   -6,600;   -6,600;    0,000
515,898;    4,100;    4,100;    0,000
516,058;    1,700;    1,700;    0,000
516,217;   23,100;   23,100;    0,000
516,377;   10,200;   10,200;    0,000
516,537;   18,000;   18,000;    0,000
516,696;    6,700;    6,700;    0,000
516,856;  -16,000;  -16,000;    0,000
517,015;    7,300;    7,300;    0,000
517,175;   35,700;   35,700;    0,000
517,335;   18,700;   18,700;    0,000
517,494;   31,000;   31,000;    0,000
517,654;   -3,500;   -3,500;    0,000
517,813;   -3,000;   -3,000;    0,000
517,973;    0,400;    0,400;    0,000
518,132;   -3,000;   -3,000;    0,000
518,292;    9,400;    9,400;    0,000
518,451;   24,000;   24,000;    0,000
518,611;   17,300;   17,300;    0,000
518,770;   25,500;   25,500;    0,000
518,930;   20,100;   20,100;    0,000
519,089;   16,700;   16,700;    0,000
519,249;   -8,400;   -8,400;    0,000
519,408;    5,300;    5,300;    0,000
519,568;   28,000;   28,000;    0,000
519,727;   49,200;   49,200;    0,000
519,887;   18,400;   18,400;    0,000
520,046;   26,000;   26,000;    0,000
520,205;  -20,100;  -20,100;    0,000
520,365;   38,700;   38,700;    0,000
520,524;    3,200;    3,200;    0,000
520,684;   -4,300;   -4,300;    0,000
520,843;   30,200;   30,200;    0,000
521,003;   54,200;   54,200;    0,000
521,162;   12,500;   12,500;    0,000
521,321;   17,200;   17,200;    0,000
521,481;  -16,100;  -16,100;    0,000
521,640;   28,400;   28,400;    0,000
521,799;   29,900;   29,900;    0,000
521,959;   -5,300;   -5,300;    0,000
522,118;  -28,000;  -28,000;    0,000
522,277;    4,000;    4,000;    0,000
522,437;   33,400;   33,400;    0,000
522,596;   -1,500;   -1,500;    0,000
522,755;   17,200;   17,200;    0,000
522,915;   19,500;   19,500;    0,000
523,074;  -11,800;  -11,800;    0,000
523,233;  -11,700;  -11,700;    0,000
523,393;  -17,800;  -17,800;    0,000
523,552;   38,900;   38,900;    0,000
523,711;  -17,400;  -17,400;    0,000
523,870;   24,000;   24,000;    0,000
524,030;   13,900;   13,900;    0,000
524,189;  -22,100;  -22,100;    0,000
524,348;   13,000;   13,000;    0,000
524,507;   21,900;   21,900;    0,000
524,667;   20,500;   20,500;    0,000
524,826;  -24,100;  -24,100;    0,000
524,985;   32,400;   32,400;    0,000
525,144;   13,400;   13,400;    0,000
525,303;    0,600;    0,600;    0,000
525,463;   -6,300;   -6,300;    0,000
525,622;   -0,300;   -0,300;    0,000
525,781;    1,200;    1,200;    0,000
525,940;   22,400;   22,400;    0,000
526,099;  -45,000;  -45,000;    0,000
526,258;    6,900;    6,900;    0,000
526,417;   36,200;   36,200;    0,000
526,577;   28,200;   28,200;    0,000
526,736;   -0,200;   -0,200;    0,000
526,895;  -45,800;  -45,800;    0,000
527,054;   -6,000;   -6,000;    0,000
527,213;   -5,200;   -5,200;    0,000
527,372;   59,900;   59,900;    0,000
527,531;    4,700;    4,700;    0,000
527,690;   18,200;   18,200;    0,000
527,849;   -3,900;   -3,900;    0,000
528,008;   44,900;   44,900;    0,000
528,167;  -12,700;  -12,700;    0,000
528,327;   -1,400;   -1,400;    0,000
528,486;   -6,200;   -6,200;    0,000
528,645;   51,800;   51,800;    0,000
528,804;  -21,600;  -21,600;    0,000
528,963;  -16,000;  -16,000;    0,000
529,122;  -16,200;  -16,200;    0,000
529,281;  -10,100;  -10,100;    0,000
529,440;   -6,800;   -6,800;    0,000
529,599;  -16,600;  -16,600;    0,000
529,758;  -34,600;  -34,600;    0,000
529,917;   11,900;   11,900;    0,000
530,076;  -15,700;  -15,700;    0,000
530,234;    1,600;    1,600;    0,000
530,393;   13,900;   13,900;    0,000
530,552;   48,300;   48,300;    0,000
530,711;   11,700;   11,700;    0,000
530,870;   74,000;   74,000;    0,000
531,029;  -11,200;  -11,200;    0,000
531,188;  -14,300;  -14,300;    0,000
531,347;   -8,100;   -8,100;    0,000
531,506;   -0,300;   -0,300;    0,000
531,665;  -13,000;  -13,000;    0,000
531,824;    6,000;    6,000;    0,000
531,983;    0,800;    0,800;    0,000
532,141;   44,000;   44,000;    0,000
532,300;  -24,300;  -24,300;    0,000
532,459;   -0,900;   -0,900;    0,000
532,618;    5,300;    5,300;    0,000
532,777;    2,000;    2,000;    0,000
532,936;   50,300;   50,300;    0,000
533,094;   82,500;   82,500;    0,000
533,253;   59,600;   59,600;    0,000
533,412;   18,000;   18,000;    0,000
533,571;  -18,800;  -18,800;    0,000
533,730;   29,700;   29,700;    0,000
533,888;   18,700;   18,700;    0,000
534,047;   63,100;   63,100;    0,000
534,206;  -21,600;  -21,600;    0,000
534,365;    1,800;    1,800;    0,000
534,523;   42,800;   42,800;    0,000
534,682;   40,100;   40,100;    0,000
534,841;  -25,800;  -25,800;    0,000
535,000;   -3,600;   -3,600;    0,000
535,158;  -18,600;  -18,600;    0,000
535,317;   25,200;   25,200;    0,000
535,476;  -31,200;  -31,200;    0,000
535,634;   16,700;   16,700;    0,000
535,793;    4,400;    4,400;    0,000
535,952;   -2,400;   -2,400;    0,000
536,111;  -15,000;  -15,000;    0,000
536,269;   51,400;   51,400;    0,000
536,428;   -7,300;   -7,300;    0,000
536,586;   10,900;   10,900;    0,000
536,745;    0,900;    0,900;    0,000
536,904;   36,600;   36,600;    0,000
537,062;   -5,800;   -5,800;    0,000
537,221;   49,600;   49,600;    0,000
537,380;   15,000;   15,000;    0,000
537,538;   36,800;   36,800;    0,000
537,697;    0,000;    0,000;    0,000
537,855;   31,400;   31,400;    0,000
538,014;   28,000;   28,000;    0,000
538,173;   11,400;   11,400;    0,000
538,331;   -1,500;   -1,500;    0,000
538,490;    4,700;    4,700;    0,000
538,648;   27,000;   27,000;    0,000
538,807;   22,700;   22,700;    0,000
538,965;    2,900;    2,900;    0,000
539,124;    5,200;    5,200;    0,000
539,282;    3,100;    3,100;    0,000
539,441;   36,100;   36,100;    0,000
539,599;  -17,200;  -17,200;    0,000
539,758;   18,300;   18,300;    0,000
539,916;    2,000;    2,000;    0,000
540,075;   -3,400;   -3,400;    0,000
540,233;  -33,800;  -33,800;    0,000
540,392;    0,400;    0,400;    0,000
540,550;   34,600;   34,600;    0,000
540,709;    8,600;    8,600;    0,000
540,867;   -1,900;   -1,900;    0,000
541,026;  -14,300;  -14,300;    0,000
541,184;  -12,500;  -12,500;    0,000
541,342;  -16,700;  -16,700;    0,000
541,501;   -5,100;   -5,100;    0,000
541,659;   49,500;   49,500;    0,000
541,818;  -14,000;  -14,000;    0,000
541,976;  -21,800;  -21,800;    0,000
542,134;  -32,900;  -32,900;    0,000
542,293;   56,300;   56,300;    0,000
542,451;   17,900;   17,900;    0,000
542,609;   -4,100;   -4,100;    0,000
542,768;   14,500;   14,500;    0,000
542,926;   22,300;   22,300;    0,000
543,085;    2,500;    2,500;    0,000
543,243;   -6,300;   -6,300;    0,000
543,401;   20,400;   20,400;    0,000
543,560;   45,700;   45,700;    0,000
543,718;   23,200;   23,200;    0,000
543,876;   39,100;   39,100;    0,000
544,034;   34,700;   34,700;    0,000
544,193;  -28,100;  -28,100;    0,000
544,351;   -8,400;   -8,400;    0,000
544,509;  -21,200;  -21,200;    0,000
544,667;   -1,600;   -1,600;    0,000
544,826;   30,100;   30,100;    0,000
544,984;  -10,100;  -10,100;    0,000
545,142;    8,900;    8,900;    0,000
545,300;  -14,600;  -14,600;    0,000
545,459;   -5,600;   -5,600;    0,000
545,617;  -12,700;  -12,700;    0,000
545,775;    0,200;    0,200;    0,000
545,933;  -31,400;  -31,400;    0,000
546,091;  -18,300;  -18,300;    0,000
546,250;   18,500;   18,500;    0,000
546,408;   43,900;   43,900;    0,000
546,566;  -33,500;  -33,500;    0,000
546,724;   38,300;   38,300;    0,000
546,882;   -5,000;   -5,000;    0,000
547,040;   10,900;   10,900;    0,000
547,199;   -4,000;   -4,000;    0,000
547,357;   15,200;   15,200;    0,000
547,515;  -22,900;  -22,900;    0,000
547,673;   -1,000;   -1,000;    0,000
547,831;   10,600;   10,600;    0,000
547,989;  -26,800;  -26,800;    0,000
548,147;    5,400;    5,400;    0,000
548,305;   15,800;   15,800;    0,000
548,463;  -13,200;  -13,200;    0,000
548,621;  -26,600;  -26,600;    0,000
548,779;    8,200;    8,200;    0,000
548,938;   23,000;   23,000;    0,000
549,096;    8,300;    8,300;    0,000
549,254;   21,900;   21,900;    0,000
549,412;   -8,300;   -8,300;    0,000
549,570;    2,700;    2,700;    0,000
549,728;  -19,000;  -19,000;    0,000
549,886;   43,000;   43,000;    0,000
550,044;   11,500;   11,500;    0,000
550,202;    3,700;    3,700;    0,000
550,360;  -21,600;  -21,600;    0,000
550,518;  -24,100;  -24,100;    0,000
550,676;    6,400;    6,400;    0,000
550,833;  -18,500;  -18,500;    0,000
550,991;   15,500;   15,500;    0,000
551,149;    0,900;    0,900;    0,000
551,307;  -33,100;  -33,100;    0,000
551,465;    4,200;    4,200;    0,000
551,623;  -24,100;  -24,100;    0,000
551,781;   12,300;   12,300;    0,000
551,939;   89,900;   89,900;    0,000
552,097;   29,500;   29,500;    0,000
552,255;   -4,500;   -4,500;    0,000
552,413;   60,300;   60,300;    0,000
552,570;  -24,400;  -24,400;    0,000
552,728;  -17,800;  -17,800;    0,000
552,886;   -6,800;   -6,800;    0,000
553,044;    6,100;    6,100;    0,000
553,202;  -23,600;  -23,600;    0,000
553,360;    7,200;    7,200;    0,000
553,518;   12,300;   12,300;    0,000
553,675;   34,400;   34,400;    0,000
553,833;  -16,300;  -16,300;    0,000
553,991;   25,100;   25,100;    0,000
554,149;   -4,600;   -4,600;    0,000
554,307;   54,800;   54,800;    0,000
554,464;    4,900;    4,900;    0,000
554,622;   21,200;   21,200;    0,000
554,780;   24,300;   24,300;    0,000
554,938;   16,000;   16,000;    0,000
555,095;  -14,500;  -14,500;    0,000
555,253;  -14,500;  -14,500;    0,000
555,411;    8,800;    8,800;    0,000
555,569;    2,100;    2,100;    0,000
555,726;   27,100;   27,100;    0,000
555,884;   13,700;   13,700;    0,000
556,042;  -10,400;  -10,400;    0,000
556,199;   -3,800;   -3,800;    0,000
556,357;  -22,600;  -22,600;    0,000
556,515;   13,800;   13,800;    0,000
556,672;  -35,300;  -35,300;    0,000
556,830;   -1,100;   -1,100;    0,000
556,988;  -13,700;  -13,700;    0,000
557,145;   37,500;   37,500;    0,000
557,303;    2,400;    2,400;    0,000
557,461;   -8,500;   -8,500;    0,000
557,618;   13,500;   13,500;    0,000
557,776;  -17,000;  -17,000;    0,000
557,933;   21,100;   21,100;    0,000
558,091;   13,500;   13,500;    0,000
558,249;    6,600;    6,600;    0,000
558,406;   16,800;   16,800;    0,000
558,564;   13,200;   13,200;    0,000
558,721;    7,100;    7,100;    0,000
558,879;  -28,300;  -28,300;    0,000
559,036;    3,300;    3,300;    0,000
559,194;   11,500;   11,500;    0,000
559,352;   25,600;   25,600;    0,000
559,509;    1,200;    1,200;    0,000
559,667;   -0,400;   -0,400;    0,000
559,824;  -20,800;  -20,800;    0,000
559,982;   34,700;   34,700;    0,000
560,139;  -29,800;  -29,800;    0,000
560,297;   13,200;   13,200;    0,000
560,454;   43,600;   43,600;    0,000
560,612;   37,500;   37,500;    0,000
560,769;    6,000;    6,000;    0,000
560,926;   31,300;   31,300;    0,000
561,084;  -10,700;  -10,700;    0,000
561,241;  -19,100;  -19,100;    0,000
561,399;  -17,100;  -17,100;    0,000
561,556;   -8,300;   -8,300;    0,000
561,714;   -8,500;   -8,500;    0,000
561,871;  -28,600;  -28,600;    0,000
562,028;    0,200;    0,200;    0,000
562,186;   -9,800;   -9,800;    0,000
562,343;  -19,000;  -19,000;    0,000
562,501;   17,600;   17,600;    0,000
562,658;  -16,900;  -16,900;    0,000
562,815;    3,400;    3,400;    0,000
562,973;  -51,000;  -51,000;    0,000
563,130;  -16,800;  -16,800;    0,000
563,287;  -16,300;  -16,300;    0,000
563,445;   23,200;   23,200;    0,000
563,602;   46,100;   46,100;    0,000
563,759;   10,100;   10,100;    0,000
563,917;  -18,000;  -18,000;    0,000
564,074;  -12,000;  -12,000;    0,000
564,231;  -33,700;  -33,700;    0,000
564,388;   -7,400;   -7,400;    0,000
564,546;   22,100;   22,100;    0,000
564,703;  -11,600;  -11,600;    0,000
564,860;    9,500;    9,500;    0,000
565,018;   18,100;   18,100;    0,000
565,175;    1,100;    1,100;    0,000
565,332;    1,400;    1,400;    0,000
565,489;   -8,200;   -8,200;    0,000
565,646;   -9,600;   -9,600;    0,000
565,804;   31,500;   31,500;    0,000
565,961;   19,100;   19,100;    0,000
566,118;   -0,200;   -0,200;    0,000
566,275;   -2,100;   -2,100;    0,000
566,432;   -0,900;   -0,900;    0,000
566,590;  -19,000;  -19,000;    0,000
566,747;  -20,200;  -20,200;    0,000
566,904;  -12,100;  -12,100;    0,000
567,061;    7,200;    7,200;    0,000
567,218;  -40,900;  -40,900;    0,000
567,375;   36,100;   36,100;    0,000
567,532;   -7,400;   -7,400;    0,000
567,690;  -11,300;  -11,300;    0,000
567,847;    3,300;    3,300;    0,000
568,004;    9,400;    9,400;    0,000
568,161;   -0,600;   -0,600;    0,000
568,318;   -2,800;   -2,800;    0,000
568,475;   43,300;   43,300;    0,000
568,632;  -35,000;  -35,000;    0,000
568,789;   47,400;   47,400;    0,000
568,946;   13,800;   13,800;    0,000
569,103;   39,200;   39,200;    0,000
569,260;   -3,400;   -3,400;    0,000
569,417;   17,000;   17,000;    0,000
569,574;    8,500;    8,500;    0,000
569,731;    8,500;    8,500;    0,000
569,888;   15,100;   15,100;    0,000
570,045;  -11,500;  -11,500;    0,000
570,202;    2,800;    2,800;    0,000
570,359;   -8,500;   -8,500;    0,000
570,516;   -5,500;   -5,500;    0,000
570,673;   11,000;   11,000;    0,000
570,830;  -22,700;  -22,700;    0,000
570,987;  -34,900;  -34,900;    0,000
571,144;    2,500;    2,500;    0,000
571,301;  -23,900;  -23,900;    0,000
571,458;  -37,300;  -37,300;    0,000
571,615;   -1,600;   -1,600;    0,000
571,772;  -20,200;  -20,200;    0,000
571,929;    4,400;    4,400;    0,000
572,086;    0,900;    0,900;    0,000
572,243;   -6,700;   -6,700;    0,000
572,399;   11,800;   11,800;    0,000
572,556;   -4,700;   -4,700;    0,000
572,713;  -40,700;  -40,700;    0,000
572,870;   39,700;   39,700;    0,000
573,027;   -7,800;   -7,800;    0,000
573,184;    7,600;    7,600;    0,000
573,341;   -2,200;   -2,200;    0,000
573,497;    6,900;    6,900;    0,000
573,654;   -6,600;   -6,600;    0,000
573,811;   45,900;   45,900;    0,000
573,968;   -2,700;   -2,700;    0,000
574,125;   -6,100;   -6,100;    0,000
574,281;  -29,300;  -29,300;    0,000
574,438;   17,100;   17,100;    0,000
574,595;   12,800;   12,800;    0,000
574,752;  -28,900;  -28,900;    0,000
574,908;  -19,700;  -19,700;    0,000
575,065;   -3,200;   -3,200;    0,000
575,222;   12,000;   12,000;    0,000
575,379;    5,400;    5,400;    0,000
575,535;   20,200;   20,200;    0,000
575,692;   21,200;   21,200;    0,000
575,849;  -12,700;  -12,700;    0,000
576,005;   14,700;   14,700;    0,000
576,162;  -12,700;  -12,700;    0,000
576,319;   -9,000;   -9,000;    0,000
576,476;  -36,800;  -36,800;    0,000
576,632;  -25,200;  -25,200;    0,000
576,789;    4,800;    4,800;    0,000
576,945;   21,400;   21,400;    0,000
577,102;  -17,900;  -17,900;    0,000
577,259;   40,600;   40,600;    0,000
577,415;   27,900;   27,900;    0,000
577,572;   15,600;   15,600;    0,000
577,729;   14,700;   14,700;    0,000
577,885;   18,700;   18,700;    0,000
578,042;   17,000;   17,000;    0,000
578,198;    9,500;    9,500;    0,000
578,355;   10,700;   10,700;    0,000
578,512;    3,700;    3,700;    0,000
578,668;   37,600;   37,600;    0,000
578,825;   35,800;   35,800;    0,000
578,981;   49,900;   49,900;    0,000
579,138;   33,300;   33,300;    0,000
579,294;  -13,800;  -13,800;    0,000
579,451;   10,200;   10,200;    0,000
579,607;   25,000;   25,000;    0,000
579,764;   17,200;   17,200;    0,000
579,920;   11,800;   11,800;    0,000
580,077;  -17,800;  -17,800;    0,000
580,233;  -24,300;  -24,300;    0,000
580,390;    2,300;    2,300;    0,000
580,546;  -33,800;  -33,800;    0,000
580,703;   11,100;   11,100;    0,000
580,859;   12,800;   12,800;    0,000
581,016;  -14,400;  -14,400;    0,000
581,172;   59,800;   59,800;    0,000
581,328;  120,900;  120,900;    0,000
581,485;   46,100;   46,100;    0,000
581,641;   -1,900;   -1,900;    0,000
581,798;   22,700;   22,700;    0,000
581,954;   25,800;   25,800;    0,000
582,110;   24,200;   24,200;    0,000
582,267;   -2,000;   -2,000;    0,000
582,423;   -6,700;   -6,700;    0,000
582,579;   18,800;   18,800;    0,000
582,736;   -2,900;   -2,900;    0,000
582,892;  -16,600;  -16,600;    0,000
583,049;  -21,000;  -21,000;    0,000
583,205;    5,500;    5,500;    0,000
583,361;   25,100;   25,100;    0,000
583,517;   44,300;   44,300;    0,000
583,674;    0,800;    0,800;    0,000
583,830;    0,600;    0,600;    0,000
583,986;    2,500;    2,500;    0,000
584,143;   18,700;   18,700;    0,000
584,299;    5,400;    5,400;    0,000
584,455;    7,100;    7,100;    0,000
584,611;  -50,800;  -50,800;    0,000
584,768;   35,600;   35,600;    0,000
584,924;    2,600;    2,600;    0,000
585,080;   35,400;   35,400;    0,000
585,236;   -1,300;   -1,300;    0,000
585,393;   28,800;   28,800;    0,000
585,549;    8,600;    8,600;    0,000
585,705;  -15,600;  -15,600;    0,000
585,861;  -36,600;  -36,600;    0,000
586,017;   11,500;   11,500;    0,000
586,174;  -33,800;  -33,800;    0,000
586,330;  -18,600;  -18,600;    0,000
586,486;   -1,900;   -1,900;    0,000
586,642;    7,300;    7,300;    0,000
586,798;   18,600;   18,600;    0,000
586,954;   17,000;   17,000;    0,000
587,110;  -18,200;  -18,200;    0,000
587,267;   13,000;   13,000;    0,000
587,423;    9,700;    9,700;    0,000
587,579;  -10,400;  -10,400;    0,000
587,735;   10,900;   10,900;    0,000
587,891;   34,700;   34,700;    0,000
588,047;  -38,600;  -38,600;    0,000
588,203;   11,700;   11,700;    0,000
588,359;   -1,800;   -1,800;    0,000
588,515;   21,500;   21,500;    0,000
588,671;   -9,400;   -9,400;    0,000
588,827;   18,300;   18,300;    0,000
588,983;   39,900;   39,900;    0,000
589,139;    5,200;    5,200;    0,000
589,295;   26,700;   26,700;    0,000
589,451;   35,000;   35,000;    0,000
589,607;  -31,900;  -31,900;    0,000
589,763;    8,300;    8,300;    0,000
589,919;    8,900;    8,900;    0,000
590,075;   12,400;   12,400;    0,000
590,231;  -17,100;  -17,100;    0,000
590,387;   -7,800;   -7,800;    0,000
590,543;   22,200;   22,200;    0,000
590,699;   24,900;   24,900;    0,000
590,855;   38,000;   38,000;    0,000
591,011;    1,100;    1,100;    0,000
591,167;    0,400;    0,400;    0,000
591,323;   22,900;   22,900;    0,000
591,479;   19,500;   19,500;    0,000
591,635;   17,700;   17,700;    0,000
591,790;    9,800;    9,800;    0,000
591,946;   27,200;   27,200;    0,000
592,102;  -16,600;  -16,600;    0,000
592,258;   57,200;   57,200;    0,000
592,414;   12,100;   12,100;    0,000
592,570;   19,900;   19,900;    0,000
592,726;   21,300;   21,300;    0,000
592,881;  -10,200;  -10,200;    0,000
593,037;    5,000;    5,000;    0,000
593,193;  -12,100;  -12,100;    0,000
593,349;   -3,400;   -3,400;    0,000
593,505;   25,600;   25,600;    0,000
593,660;  -18,500;  -18,500;    0,000
593,816;   18,000;   18,000;    0,000
593,972;   11,100;   11,100;    0,000
594,128;   17,100;   17,100;    0,000
594,283;   17,100;   17,100;    0,000
594,439;  -28,600;  -28,600;    0,000
594,595;   61,600;   61,600;    0,000
594,751;   14,400;   14,400;    0,000
594,906;    3,100;    3,100;    0,000
595,062;   24,000;   24,000;    0,000
595,218;   -8,600;   -8,600;    0,000
595,374;   28,400;   28,400;    0,000
595,529;  -35,600;  -35,600;    0,000
595,685;  -10,500;  -10,500;    0,000
595,841;   22,200;   22,200;    0,000
595,996;   27,000;   27,000;    0,000
596,152;  -16,200;  -16,200;    0,000
596,308;  -14,000;  -14,000;    0,000
596,463;  -39,600;  -39,600;    0,000
596,619;  -21,500;  -21,500;    0,000
596,774;  -25,300;  -25,300;    0,000
596,930;    9,300;    9,300;    0,000
597,086;   12,300;   12,300;    0,000
597,241;   22,500;   22,500;    0,000
597,397;   -5,600;   -5,600;    0,000
597,552;   55,500;   55,500;    0,000
597,708;   20,600;   20,600;    0,000
597,864;   -6,400;   -6,400;    0,000
598,019;   -5,400;   -5,400;    0,000
598,175;   35,200;   35,200;    0,000
598,330;   29,600;   29,600;    0,000
598,486;   50,700;   50,700;    0,000
598,641;    7,500;    7,500;    0,000
598,797;   17,000;   17,000;    0,000
598,952;  -17,700;  -17,700;    0,000
599,108;    2,400;    2,400;    0,000
599,263;    4,100;    4,100;    0,000
599,419;   18,500;   18,500;    0,000
599,574;   43,400;   43,400;    0,000
599,730;    4,100;    4,100;    0,000
599,885;   -6,100;   -6,100;    0,000
600,041;   15,200;   15,200;    0,000
600,196;   27,000;   27,000;    0,000
600,352;   23,200;   23,200;    0,000
600,507;  -27,500;  -27,500;    0,000
600,662;   49,900;   49,900;    0,000
600,818;   31,800;   31,800;    0,000
600,973;    9,100;    9,100;    0,000
601,129;   11,200;   11,200;    0,000
601,284;  -12,100;  -12,100;    0,000
601,439;   18,800;   18,800;    0,000
601,595;  -15,500;  -15,500;    0,000
601,750;  -23,700;  -23,700;    0,000
601,905;   29,600;   29,600;    0,000
602,061;   27,000;   27,000;    0,000
602,216;   59,900;   59,900;    0,000
602,371;   22,300;   22,300;    0,000
602,527;  -16,000;  -16,000;    0,000
602,682;    8,200;    8,200;    0,000
602,837;  -17,100;  -17,100;    0,000
602,993;    6,100;    6,100;    0,000
603,148;   30,900;   30,900;    0,000
603,303;   55,300;   55,300;    0,000
603,458;    6,700;    6,700;    0,000
603,614;   20,400;   20,400;    0,000
603,769;   16,000;   16,000;    0,000
603,924;    3,400;    3,400;    0,000
604,080;   -9,600;   -9,600;    0,000
604,235;  -14,900;  -14,900;    0,000
604,390;   16,500;   16,500;    0,000
604,545;    7,000;    7,000;    0,000
604,700;   59,800;   59,800;    0,000
604,856;   13,000;   13,000;    0,000
605,011;   -1,000;   -1,000;    0,000
605,166;   -2,100;   -2,100;    0,000
605,321;   44,300;   44,300;    0,000
605,476;   20,800;   20,800;    0,000
605,631;   33,100;   33,100;    0,000
605,787;   14,000;   14,000;    0,000
605,942;   45,700;   45,700;    0,000
606,097;  -23,600;  -23,600;    0,000
606,252;    2,300;    2,300;    0,000
606,407;   -1,800;   -1,800;    0,000
606,562;   45,000;   45,000;    0,000
606,717;  -31,900;  -31,900;    0,000
606,872;   34,100;   34,100;    0,000
607,027;   -9,000;   -9,000;    0,000
607,183;    1,600;    1,600;    0,000
607,338;   28,200;   28,200;    0,000
607,493;   33,500;   33,500;    0,000
607,648;  -20,800;  -20,800;    0,000
607,803;  -23,000;  -23,000;    0,000
607,958;  -21,300;  -21,300;    0,000
608,113;   26,600;   26,600;    0,000
608,268;    7,400;    7,400;    0,000
608,423;   -6,700;   -6,700;    0,000
608,578;   -4,200;   -4,200;    0,000
608,733;  -34,800;  -34,800;    0,000
608,888;  -18,300;  -18,300;    0,000
609,043;    9,500;    9,500;    0,000
609,198;   -1,000;   -1,000;    0,000
609,353;    9,800;    9,800;    0,000
609,508;   49,600;   49,600;    0,000
609,663;    8,400;    8,400;    0,000
609,818;   12,200;   12,200;    0,000
609,972;   16,100;   16,100;    0,000
610,127;  -15,700;  -15,700;    0,000
610,282;    7,200;    7,200;    0,000
610,437;   27,100;   27,100;    0,000
610,592;   19,200;   19,200;    0,000
610,747;  -24,600;  -24,600;    0,000
610,902;  -21,000;  -21,000;    0,000
611,057;  -15,700;  -15,700;    0,000
611,212;    5,700;    5,700;    0,000
611,366;   -5,500;   -5,500;    0,000
611,521;   -4,900;   -4,900;    0,000
611,676;    6,700;    6,700;    0,000
611,831;   23,900;   23,900;    0,000
611,986;    5,300;    5,300;    0,000
612,141;   17,900;   17,900;    0,000
612,295;   34,500;   34,500;    0,000
612,450;  -31,200;  -31,200;    0,000
612,605;   25,700;   25,700;    0,000
612,760;    0,400;    0,400;    0,000
612,914;   -3,800;   -3,800;    0,000
613,069;   39,100;   39,100;    0,000
613,224;  -27,100;  -27,100;    0,000
613,379;   31,600;   31,600;    0,000
613,534;   16,600;   16,600;    0,000
613,688;    1,300;    1,300;    0,000
613,843;  -10,300;  -10,300;    0,000
613,998;   -8,600;   -8,600;    0,000
614,152;   -2,100;   -2,100;    0,000
614,307;   -9,400;   -9,400;    0,000
614,462;  -32,000;  -32,000;    0,000
614,616;    1,600;    1,600;    0,000
614,771;    2,600;    2,600;    0,000
614,926;   16,700;   16,700;    0,000
615,080;  -27,700;  -27,700;    0,000
615,235;    9,300;    9,300;    0,000
615,390;   12,900;   12,900;    0,000
615,544;    9,900;    9,900;    0,000
615,699;  207,500;  207,500;    0,000
615,854;  230,400;  230,400;    0,000
616,008;  130,500;  130,500;    0,000
616,163;   27,000;   27,000;    0,000
616,317;   15,100;   15,100;    0,000
616,472;  -19,100;  -19,100;    0,000
616,626;    9,200;    9,200;    0,000
616,781;   20,900;   20,900;    0,000
616,936;   14,600;   14,600;    0,000
617,090;   26,100;   26,100;    0,000
617,245;    8,000;    8,000;    0,000
617,399;    7,900;    7,900;    0,000
617,554;   16,700;   16,700;    0,000
617,708;  -11,800;  -11,800;    0,000
617,863;   23,700;   23,700;    0,000
618,017;   17,400;   17,400;    0,000
618,172;  -25,300;  -25,300;    0,000
618,326;  116,000;  116,000;    0,000
618,481;  -20,000;  -20,000;    0,000
618,635;  -25,000;  -25,000;    0,000
618,790;  -19,100;  -19,100;    0,000
618,944;   -8,700;   -8,700;    0,000
619,098;   23,900;   23,900;    0,000
619,253;   26,600;   26,600;    0,000
619,407;  -20,700;  -20,700;    0,000
619,562;   54,400;   54,400;    0,000
619,716;   -9,800;   -9,800;    0,000
619,870;   24,300;   24,300;    0,000
620,025;  -20,900;  -20,900;    0,000
620,179;    8,700;    8,700;    0,000
620,334;   -0,400;   -0,400;    0,000
620,488;    0,800;    0,800;    0,000
620,642;   -1,000;   -1,000;    0,000
620,797;    1,800;    1,800;    0,000
620,951;   -7,500;   -7,500;    0,000
621,105;    2,900;    2,900;    0,000
621,260;  -19,100;  -19,100;    0,000
621,414;   11,200;   11,200;    0,000
621,568;   17,400;   17,400;    0,000
621,723;   17,000;   17,000;    0,000
621,877;   -5,700;   -5,700;    0,000
622,031;   39,600;   39,600;    0,000
622,185;    2,600;    2,600;    0,000
622,340;   47,800;   47,800;    0,000
622,494;    9,800;    9,800;    0,000
622,648;   18,600;   18,600;    0,000
622,802;    3,300;    3,300;    0,000
622,957;   -9,000;   -9,000;    0,000
623,111;  -23,500;  -23,500;    0,000
623,265;   37,900;   37,900;    0,000
623,419;  -28,800;  -28,800;    0,000
623,573;   -4,600;   -4,600;    0,000
623,728;  -15,000;  -15,000;    0,000
623,882;   24,600;   24,600;    0,000
624,036;   10,200;   10,200;    0,000
624,190;   -0,300;   -0,300;    0,000
624,344;  -13,400;  -13,400;    0,000
624,498;  -11,600;  -11,600;    0,000
624,653;  -34,000;  -34,000;    0,000
624,807;   14,000;   14,000;    0,000
624,961;   28,200;   28,200;    0,000
625,115;  -29,000;  -29,000;    0,000
625,269;   -7,000;   -7,000;    0,000
625,423;   -6,900;   -6,900;    0,000
625,577;   -4,500;   -4,500;    0,000
625,731;   10,600;   10,600;    0,000
625,885;   -6,900;   -6,900;    0,000
626,039;   11,700;   11,700;    0,000
626,193;    8,200;    8,200;    0,000
626,347;   11,900;   11,900;    0,000
626,501;    9,800;    9,800;    0,000
626,655;   28,500;   28,500;    0,000
626,810;   16,700;   16,700;    0,000
626,964;  -18,200;  -18,200;    0,000
627,117;  -35,800;  -35,800;    0,000
627,271;   24,100;   24,100;    0,000
627,425;   27,100;   27,100;    0,000
627,579;   47,600;   47,600;    0,000
627,733;  -14,300;  -14,300;    0,000
627,887;  -14,500;  -14,500;    0,000
628,041;   42,000;   42,000;    0,000
628,195;    8,300;    8,300;    0,000
628,349;   16,500;   16,500;    0,000
628,503;    8,300;    8,300;    0,000
628,657;    0,700;    0,700;    0,000
628,811;    9,600;    9,600;    0,000
628,965;  -55,200;  -55,200;    0,000
629,119;   38,500;   38,500;    0,000
629,273;  -13,100;  -13,100;    0,000
629,427;   -8,100;   -8,100;    0,000
629,580;  -15,700;  -15,700;    0,000
629,734;    3,500;    3,500;    0,000
629,888;   17,200;   17,200;    0,000
630,042;   -5,000;   -5,000;    0,000
630,196;  -18,500;  -18,500;    0,000
630,350;    1,500;    1,500;    0,000
630,503;  -34,800;  -34,800;    0,000
630,657;  -10,300;  -10,300;    0,000
630,811;  -25,200;  -25,200;    0,000
630,965;   -1,900;   -1,900;    0,000
631,119;  -19,500;  -19,500;    0,000
631,272;   24,700;   24,700;    0,000
631,426;  -20,500;  -20,500;    0,000
631,580;  -27,300;  -27,300;    0,000
631,734;    5,500;    5,500;    0,000
631,887;   -9,400;   -9,400;    0,000
632,041;  -32,700;  -32,700;    0,000
632,195;  -31,000;  -31,000;    0,000
632,348;    1,000;    1,000;    0,000
632,502;  -33,900;  -33,900;    0,000
632,656;  -18,400;  -18,400;    0,000
632,810;  -10,800;  -10,800;    0,000
632,963;   10,100;   10,100;    0,000
633,117;   -0,900;   -0,900;    0,000
633,271;   13,000;   13,000;    0,000
633,424;   -9,600;   -9,600;    0,000
633,578;  -43,300;  -43,300;    0,000
633,732;    3,000;    3,000;    0,000
633,885;   12,500;   12,500;    0,000
634,039;   38,500;   38,500;    0,000
634,192;    1,200;    1,200;    0,000
634,346;   20,400;   20,400;    0,000
634,500;   23,300;   23,300;    0,000
634,653;   -6,800;   -6,800;    0,000
634,807;  -10,300;  -10,300;    0,000
634,960;   -2,300;   -2,300;    0,000
635,114;  -21,900;  -21,900;    0,000
635,267;   31,400;   31,400;    0,000
635,421;  -31,100;  -31,100;    0,000
635,574;   18,000;   18,000;    0,000
635,728;    1,700;    1,700;    0,000
635,882;   29,100;   29,100;    0,000
636,035;  -25,300;  -25,300;    0,000
636,189;   -4,100;   -4,100;    0,000
636,342;   17,700;   17,700;    0,000
636,495;   28,000;   28,000;    0,000
636,649;  -23,100;  -23,100;    0,000
636,802;  -24,600;  -24,600;    0,000
636,956;  -14,100;  -14,100;    0,000
637,109;   -2,900;   -2,900;    0,000
637,263;   32,200;   32,200;    0,000
637,416;  -15,500;  -15,500;    0,000
637,570;  -11,900;  -11,900;    0,000
637,723;   18,200;   18,200;    0,000
637,876;  -88,500;  -88,500;    0,000
638,030;  -38,300;  -38,300;    0,000
638,183;   -9,000;   -9,000;    0,000
638,337;   65,700;   65,700;    0,000
638,490;  -18,400;  -18,400;    0,000
638,643;   28,200;   28,200;    0,000
638,797;  -12,500;  -12,500;    0,000
638,950;   49,400;   49,400;    0,000
639,103;  -12,400;  -12,400;    0,000
639,257;   30,300;   30,300;    0,000
639,410;  -54,400;  -54,400;    0,000
639,563;   16,300;   16,300;    0,000
639,717;   10,900;   10,900;    0,000
639,870;   43,200;   43,200;    0,000
640,023;  -26,300;  -26,300;    0,000
640,177;   -9,200;   -9,200;    0,000
640,330;   -3,400;   -3,400;    0,000
640,483;  -37,100;  -37,100;    0,000
640,636;    3,700;    3,700;    0,000
640,790;    7,300;    7,300;    0,000
640,943;   -1,900;   -1,900;    0,000
641,096;    6,300;    6,300;    0,000
641,249;  -19,700;  -19,700;    0,000
641,402;    4,900;    4,900;    0,000
641,556;   -5,500;   -5,500;    0,000
641,709;   11,500;   11,500;    0,000
641,862;   18,400;   18,400;    0,000
642,015;   -9,300;   -9,300;    0,000
642,168;   -1,300;   -1,300;    0,000
642,322;  -12,700;  -12,700;    0,000
642,475;   -6,900;   -6,900;    0,000
642,628;   39,900;   39,900;    0,000
642,781;   13,500;   13,500;    0,000
642,934;    2,600;    2,600;    0,000
643,087;    4,500;    4,500;    0,000
643,240;  -27,700;  -27,700;    0,000
643,393;  -29,500;  -29,500;    0,000
643,547;   19,800;   19,800;    0,000
643,700;    9,900;    9,900;    0,000
643,853;   67,700;   67,700;    0,000
644,006;  -18,200;  -18,200;    0,000
644,159;   44,800;   44,800;    0,000
644,312;   40,300;   40,300;    0,000
644,465;    2,700;    2,700;    0,000
644,618;  -15,100;  -15,100;    0,000
644,771;    1,300;    1,300;    0,000
644,924;    9,700;    9,700;    0,000
645,077;   52,900;   52,900;    0,000
645,230;   36,400;   36,400;    0,000
645,383;   24,700;   24,700;    0,000
645,536;   41,500;   41,500;    0,000
645,689;   65,800;   65,800;    0,000
645,842;   16,100;   16,100;    0,000
645,995;   21,300;   21,300;    0,000
646,148;  -20,300;  -20,300;    0,000
646,301;   26,400;   26,400;    0,000
646,454;   19,700;   19,700;    0,000
646,607;   11,500;   11,500;    0,000
646,759;  -32,000;  -32,000;    0,000
646,912;   38,800;   38,800;    0,000
647,065;  -25,700;  -25,700;    0,000
647,218;   30,300;   30,300;    0,000
647,371;  -31,300;  -31,300;    0,000
647,524;    7,400;    7,400;    0,000
647,677;   -4,500;   -4,500;    0,000
647,830;    9,000;    9,000;    0,000
647,982;   -7,800;   -7,800;    0,000
648,135;   12,900;   12,900;    0,000
648,288;   -1,700;   -1,700;    0,000
648,441;    8,300;    8,300;    0,000
648,594;  -35,800;  -35,800;    0,000
648,746;   27,500;   27,500;    0,000
648,899;   10,500;   10,500;    0,000
649,052;   33,300;   33,300;    0,000
649,205;   -4,700;   -4,700;    0,000
649,358;  -12,100;  -12,100;    0,000
649,510;  -11,600;  -11,600;    0,000
649,663;    4,400;    4,400;    0,000
649,816;    6,900;    6,900;    0,000
649,969;   51,700;   51,700;    0,000
650,121;  -14,300;  -14,300;    0,000
650,274;   14,200;   14,200;    0,000
650,427;   -2,300;   -2,300;    0,000
650,579;  -21,600;  -21,600;    0,000
650,732;   20,000;   20,000;    0,000
650,885;   -2,800;   -2,800;    0,000
651,037;   35,900;   35,900;    0,000
651,190;    3,600;    3,600;    0,000
651,343;   30,300;   30,300;    0,000
651,495;   44,900;   44,900;    0,000
651,648;   65,600;   65,600;    0,000
651,801;   36,400;   36,400;    0,000
651,953;  -17,400;  -17,400;    0,000
652,106;   16,300;   16,300;    0,000
652,258;  -24,100;  -24,100;    0,000
652,411;   15,200;   15,200;    0,000
652,564;   52,700;   52,700;    0,000
652,716;   21,300;   21,300;    0,000
652,869;   18,400;   18,400;    0,000
653,021;   31,200;   31,200;    0,000
653,174;   36,300;   36,300;    0,000
653,326;   36,800;   36,800;    0,000
653,479;   25,200;   25,200;    0,000
653,631;   70,200;   70,200;    0,000
653,784;   48,500;   48,500;    0,000
653,936;   44,600;   44,600;    0,000
654,089;   40,100;   40,100;    0,000
654,241;   98,600;   98,600;    0,000
654,394;   38,600;   38,600;    0,000
654,546;   73,900;   73,900;    0,000
654,699;   58,000;   58,000;    0,000
654,851;  101,500;  101,500;    0,000
655,004;   93,300;   93,300;    0,000
655,156;  164,600;  164,600;    0,000
655,309;  151,000;  151,000;    0,000
655,461;  245,800;  245,800;    0,000
655,613;  311,600;  311,600;    0,000
655,766;  581,900;  581,900;    0,000
655,918; 1095,300; 1095,300;    0,000
656,071; 3278,500; 3278,500;    0,000
656,223;26018,699;26018,699;    0,000
656,375;63643,199;63643,199;    0,000
656,528;39468,301;39468,301;    0,000
656,680;10378,300;10378,300;    0,000
656,832; 2828,100; 2828,100;    0,000
656,985; 1705,400; 1705,400;    0,000
657,137;  653,000;  653,000;    0,000
657,289;  764,500;  764,500;    0,000
657,442;  301,400;  301,400;    0,000
657,594;  491,600;  491,600;    0,000
657,746;  190,900;  190,900;    0,000
657,898;  354,900;  354,900;    0,000
658,051;  145,100;  145,100;    0,000
658,203;  283,600;  283,600;    0,000
658,355;   64,300;   64,300;    0,000
658,508;  260,700;  260,700;    0,000
658,660;   70,800;   70,800;    0,000
658,812;  191,000;  191,000;    0,000
658,964;   74,100;   74,100;    0,000
659,116;  177,000;  177,000;    0,000
659,269;   59,800;   59,800;    0,000
659,421;  155,800;  155,800;    0,000
659,573;   29,300;   29,300;    0,000
659,725;  169,400;  169,400;    0,000
659,877;   79,300;   79,300;    0,000
660,029;  174,500;  174,500;    0,000
660,182;   41,200;   41,200;    0,000
660,334;   91,200;   91,200;    0,000
660,486;    4,400;    4,400;    0,000
660,638;  108,700;  108,700;    0,000
660,790;   41,300;   41,300;    0,000
660,942;   78,700;   78,700;    0,000
661,094;   35,900;   35,900;    0,000
661,246;  100,400;  100,400;    0,000
661,398;   72,600;   72,600;    0,000
661,551;   84,200;   84,200;    0,000
661,703;   42,500;   42,500;    0,000
661,855;   87,700;   87,700;    0,000
662,007;   10,900;   10,900;    0,000
662,159;   84,000;   84,000;    0,000
662,311;   11,900;   11,900;    0,000
662,463;   70,500;   70,500;    0,000
662,615;    9,100;    9,100;    0,000
662,767;  108,000;  108,000;    0,000
662,919;   14,800;   14,800;    0,000
663,071;   57,900;   57,900;    0,000
663,223;  -15,600;  -15,600;    0,000
663,375;   85,700;   85,700;    0,000
663,527;   -6,100;   -6,100;    0,000
663,679;   41,400;   41,400;    0,000
663,831;    7,400;    7,400;    0,000
663,982;   88,000;   88,000;    0,000
664,134;   31,600;   31,600;    0,000
664,286;   33,800;   33,800;    0,000
664,438;   22,100;   22,100;    0,000
664,590;   53,800;   53,800;    0,000
664,742;    8,200;    8,200;    0,000
664,894;   14,600;   14,600;    0,000
665,046;   -9,600;   -9,600;    0,000
665,198;   83,400;   83,400;    0,000
665,349;   30,000;   30,000;    0,000
665,501;   16,600;   16,600;    0,000
665,653;  -21,700;  -21,700;    0,000
665,805;   48,700;   48,700;    0,000
665,957;   -0,600;   -0,600;    0,000
666,109;   54,200;   54,200;    0,000
666,260;    1,400;    1,400;    0,000
666,412;   54,300;   54,300;    0,000
666,564;   11,500;   11,500;    0,000
666,716;   34,400;   34,400;    0,000
666,867;    8,300;    8,300;    0,000
667,019;    9,100;    9,100;    0,000
667,171;   -2,000;   -2,000;    0,000
667,323;   37,200;   37,200;    0,000
667,474;   12,500;   12,500;    0,000
667,626;   49,900;   49,900;    0,000
667,778;   39,600;   39,600;    0,000
667,930;   21,300;   21,300;    0,000
668,081;  -22,100;  -22,100;    0,000
668,233;   42,200;   42,200;    0,000
668,385;  -26,300;  -26,300;    0,000
668,536;   -3,100;   -3,100;    0,000
668,688;    7,500;    7,500;    0,000
668,840;   45,100;   45,100;    0,000
668,991;    4,200;    4,200;    0,000
669,143;   34,200;   34,200;    0,000
669,294;   -5,500;   -5,500;    0,000
669,446;   45,600;   45,600;    0,000
669,598;  -11,600;  -11,600;    0,000
669,749;   62,200;   62,200;    0,000
669,901;   -1,800;   -1,800;    0,000
670,052;   41,900;   41,900;    0,000
670,204;  -36,500;  -36,500;    0,000
670,356;  -31,100;  -31,100;    0,000
670,507;   35,700;   35,700;    0,000
670,659;   70,800;   70,800;    0,000
670,810;  -14,100;  -14,100;    0,000
670,962;   26,800;   26,800;    0,000
671,113;  -13,300;  -13,300;    0,000
671,265;   68,700;   68,700;    0,000
671,416;  -51,700;  -51,700;    0,000
671,568;    9,700;    9,700;    0,000
671,719;  -56,900;  -56,900;    0,000
671,871;   29,300;   29,300;    0,000
672,022;   -7,000;   -7,000;    0,000
672,174;   22,700;   22,700;    0,000
672,325;  -30,400;  -30,400;    0,000
672,476;   25,600;   25,600;    0,000
672,628;   30,900;   30,900;    0,000
672,779;   -3,100;   -3,100;    0,000
672,931;   42,500;   42,500;    0,000
673,082;   46,600;   46,600;    0,000
673,234;    4,500;    4,500;    0,000
673,385;   28,400;   28,400;    0,000
673,536;  -11,600;  -11,600;    0,000
673,688;   14,000;   14,000;    0,000
673,839;  -36,500;  -36,500;    0,000
673,990;   18,200;   18,200;    0,000
674,142;   -8,100;   -8,100;    0,000
674,293;   55,600;   55,600;    0,000
674,444;  -32,200;  -32,200;    0,000
674,596;   43,300;   43,300;    0,000
674,747;   -2,000;   -2,000;    0,000
674,898;   57,100;   57,100;    0,000
675,049;   -6,900;   -6,900;    0,000
675,201;   16,900;   16,900;    0,000
675,352;   43,400;   43,400;    0,000
675,503;   22,300;   22,300;    0,000
675,655;   18,000;   18,000;    0,000
675,806;   32,100;   32,100;    0,000
675,957;  -20,500;  -20,500;    0,000
676,108;   19,600;   19,600;    0,000
676,259;   15,800;   15,800;    0,000
676,411;   31,000;   31,000;    0,000
676,562;   20,700;   20,700;    0,000
676,713;   -0,600;   -0,600;    0,000
676,864;   38,500;   38,500;    0,000
677,015;   44,000;   44,000;    0,000
677,167;  -19,000;  -19,000;    0,000
677,318;   24,900;   24,900;    0,000
677,469;  -34,400;  -34,400;    0,000
677,620;    9,000;    9,000;    0,000
677,771;   -8,300;   -8,300;    0,000
677,922;   42,300;   42,300;    0,000
678,073;    8,900;    8,900;    0,000
678,224;    0,200;    0,200;    0,000
678,376;   -2,300;   -2,300;    0,000
678,527;   35,800;   35,800;    0,000
678,678;   39,600;   39,600;    0,000
678,829;   44,500;   44,500;    0,000
678,980;   -4,400;   -4,400;    0,000
679,131;   53,600;   53,600;    0,000
679,282;  -10,500;  -10,500;    0,000
679,433;  -11,300;  -11,300;    0,000
679,584;  -16,800;  -16,800;    0,000
679,735;   15,000;   15,000;    0,000
679,886;  -17,400;  -17,400;    0,000
680,037;   34,500;   34,500;    0,000
680,188;  -18,200;  -18,200;    0,000
680,339;   60,400;   60,400;    0,000
680,490;  -37,100;  -37,100;    0,000
680,641;   -2,500;   -2,500;    0,000
680,792;    2,500;    2,500;    0,000
680,943;   -3,500;   -3,500;    0,000
681,094;  -17,100;  -17,100;    0,000
681,245;   -6,800;   -6,800;    0,000
681,395;   -9,800;   -9,800;    0,000
681,546;  -15,800;  -15,800;    0,000
681,697;  -12,100;  -12,100;    0,000
681,848;   -8,800;   -8,800;    0,000
681,999;   22,900;   22,900;    0,000
682,150;   -7,900;   -7,900;    0,000
682,301;  -13,500;  -13,500;    0,000
682,452;   26,900;   26,900;    0,000
682,602;  -10,100;  -10,100;    0,000
682,753;   27,200;   27,200;    0,000
682,904;   31,700;   31,700;    0,000
683,055;   10,000;   10,000;    0,000
683,206;  -40,400;  -40,400;    0,000
683,357;   31,400;   31,400;    0,000
683,507;    1,900;    1,900;    0,000
683,658;   -3,100;   -3,100;    0,000
683,809;   27,100;   27,100;    0,000
683,960;   10,800;   10,800;    0,000
684,110;    9,000;    9,000;    0,000
684,261;  -26,300;  -26,300;    0,000
684,412;   -0,300;   -0,300;    0,000
684,563;   25,000;   25,000;    0,000
684,713;    2,600;    2,600;    0,000
684,864;   16,800;   16,800;    0,000
685,015;   28,400;   28,400;    0,000
685,165;   48,500;   48,500;    0,000
685,316;  -10,600;  -10,600;    0,000
685,467;    4,700;    4,700;    0,000
685,617;    1,400;    1,400;    0,000
685,768;   -5,900;   -5,900;    0,000
685,919;  -12,500;  -12,500;    0,000
686,069;   27,800;   27,800;    0,000
686,220;  -25,700;  -25,700;    0,000
686,370;    8,800;    8,800;    0,000
686,521;  -24,900;  -24,900;    0,000
686,672;    7,400;    7,400;    0,000
686,822;  -23,000;  -23,000;    0,000
686,973;  -10,400;  -10,400;    0,000
687,123;  -16,600;  -16,600;    0,000
687,274;    3,000;    3,000;    0,000
687,425;  -36,400;  -36,400;    0,000
687,575;   26,900;   26,900;    0,000
687,726;   27,200;   27,200;    0,000
687,876;    4,900;    4,900;    0,000
688,027;    4,400;    4,400;    0,000
688,177;   -3,800;   -3,800;    0,000
688,328;  -26,700;  -26,700;    0,000
688,478;   21,800;   21,800;    0,000
688,629;   24,500;   24,500;    0,000
688,779;   34,600;   34,600;    0,000
688,930;    6,000;    6,000;    0,000
689,080;   15,000;   15,000;    0,000
689,230;   -8,700;   -8,700;    0,000
689,381;   47,900;   47,900;    0,000
689,531;   22,900;   22,900;    0,000
689,682;    6,400;    6,400;    0,000
689,832;  -45,400;  -45,400;    0,000
689,983;    7,800;    7,800;    0,000
690,133;   43,500;   43,500;    0,000
690,283;   10,400;   10,400;    0,000
690,434;   -8,500;   -8,500;    0,000
690,584;   -3,300;   -3,300;    0,000
690,734;  -17,700;  -17,700;    0,000
690,885;   -4,800;   -4,800;    0,000
691,035;  -29,300;  -29,300;    0,000
691,185;   37,200;   37,200;    0,000
691,336;  -10,600;  -10,600;    0,000
691,486;    9,500;    9,500;    0,000
691,636;  -26,500;  -26,500;    0,000
691,787;   29,500;   29,500;    0,000
691,937;  -28,600;  -28,600;    0,000
692,087;   14,600;   14,600;    0,000
692,237;   -9,100;   -9,100;    0,000
692,388;   42,600;   42,600;    0,000
692,538;    8,200;    8,200;    0,000
692,688;   34,600;   34,600;    0,000
692,838;  -45,800;  -45,800;    0,000
692,989;    2,800;    2,800;    0,000
693,139;   19,000;   19,000;    0,000
693,289;  -10,600;  -10,600;    0,000
693,439;   16,800;   16,800;    0,000
693,589;   38,900;   38,900;    0,000
693,740;   15,200;   15,200;    0,000
693,890;    4,100;    4,100;    0,000
694,040;    0,600;    0,600;    0,000
694,190;    4,200;    4,200;    0,000
694,340;   30,100;   30,100;    0,000
694,490;   21,200;   21,200;    0,000
694,640;  -11,900;  -11,900;    0,000
694,791;    5,700;    5,700;    0,000
694,941;   -9,000;   -9,000;    0,000
695,091;   25,200;   25,200;    0,000
695,241;  -14,600;  -14,600;    0,000
695,391;   33,800;   33,800;    0,000
695,541;   30,300;   30,300;    0,000
695,691;   10,500;   10,500;    0,000
695,841;   -2,900;   -2,900;    0,000
695,991;  -11,400;  -11,400;    0,000
696,141;   26,900;   26,900;    0,000
696,291;   39,100;   39,100;    0,000
696,441;   23,500;   23,500;    0,000
696,591;  -24,900;  -24,900;    0,000
696,741;  -39,500;  -39,500;    0,000
696,891;   30,800;   30,800;    0,000
697,041;  -13,500;  -13,500;    0,000
697,191;   20,800;   20,800;    0,000
697,341;  -26,600;  -26,600;    0,000
697,491;    2,500;    2,500;    0,000
697,641;   -3,300;   -3,300;    0,000
697,791;   25,500;   25,500;    0,000
697,941;    9,400;    9,400;    0,000
698,091;   23,700;   23,700;    0,000
698,241;   -2,700;   -2,700;    0,000
698,391;   18,600;   18,600;    0,000
698,540;   -9,200;   -9,200;    0,000
698,690;   -8,300;   -8,300;    0,000
698,840;  -52,400;  -52,400;    0,000
698,990;   33,400;   33,400;    0,000
699,140;  -11,400;  -11,400;    0,000
699,290;   -6,400;   -6,400;    0,000
699,440;   -6,100;   -6,100;    0,000
699,589;   -6,500;   -6,500;    0,000
699,739;    8,400;    8,400;    0,000
699,889;   26,900;   26,900;    0,000
700,039;  -25,500;  -25,500;    0,000
700,188;   33,800;   33,800;    0,000
700,338;  -18,100;  -18,100;    0,000
700,488;   37,600;   37,600;    0,000
700,638;  -33,300;  -33,300;    0,000
700,788;   -4,300;   -4,300;    0,000
700,937;  -19,200;  -19,200;    0,000
701,087;    9,400;    9,400;    0,000
701,237;   -5,800;   -5,800;    0,000
701,386;   22,900;   22,900;    0,000
701,536;   -0,900;   -0,900;    0,000
701,686;   25,300;   25,300;    0,000
701,836;   -8,200;   -8,200;    0,000
701,985;   -0,500;   -0,500;    0,000
702,135;  -36,900;  -36,900;    0,000
702,284;  -35,500;  -35,500;    0,000
702,434;  -13,600;  -13,600;    0,000
702,584;   -5,500;   -5,500;    0,000
702,733;   -6,000;   -6,000;    0,000
702,883;   27,400;   27,400;    0,000
703,033;    7,300;    7,300;    0,000
703,182;   57,900;   57,900;    0,000
703,332;    3,500;    3,500;    0,000
703,481;    4,500;    4,500;    0,000
703,631;  -25,100;  -25,100;    0,000
703,781;    1,800;    1,800;    0,000
703,930;  -24,200;  -24,200;    0,000
704,080;    3,700;    3,700;    0,000
704,229;   -1,100;   -1,100;    0,000
704,379;   27,200;   27,200;    0,000
704,528;   -5,400;   -5,400;    0,000
704,678;  -20,800;  -20,800;    0,000
704,827;  -26,600;  -26,600;    0,000
704,977;    0,200;    0,200;    0,000
705,126;   15,000;   15,000;    0,000
705,276;   -8,900;   -8,900;    0,000
705,425;   -8,500;   -8,500;    0,000
705,575;    7,600;    7,600;    0,000
705,724;   -3,400;   -3,400;    0,000
705,873;   25,300;   25,300;    0,000
706,023;   37,000;   37,000;    0,000
706,172;   23,700;   23,700;    0,000
706,322;   34,100;   34,100;    0,000
706,471;   14,000;   14,000;    0,000
706,620;  -14,600;  -14,600;    0,000
706,770;   15,300;   15,300;    0,000
706,919;   18,100;   18,100;    0,000
707,069;   -1,800;   -1,800;    0,000
707,218;  -35,400;  -35,400;    0,000
707,367;   11,700;   11,700;    0,000
707,517;   33,400;   33,400;    0,000
707,666;   16,900;   16,900;    0,000
707,815;  -24,000;  -24,000;    0,000
707,965;   15,400;   15,400;    0,000
708,114;   46,100;   46,100;    0,000
708,263;  -26,700;  -26,700;    0,000
708,412;  -38,100;  -38,100;    0,000
708,562;   10,800;   10,800;    0,000
708,711;   -1,600;   -1,600;    0,000
708,860;  -22,500;  -22,500;    0,000
709,009;   17,000;   17,000;    0,000
709,159;  -24,700;  -24,700;    0,000
709,308;   -7,700;   -7,700;    0,000
709,457;   30,600;   30,600;    0,000
709,606;  -29,700;  -29,700;    0,000
709,755;  -30,500;  -30,500;    0,000
709,905;  -20,200;  -20,200;    0,000
710,054;   27,700;   27,700;    0,000
710,203;    6,800;    6,800;    0,000
710,352;  -37,500;  -37,500;    0,000
710,501;  -24,000;  -24,000;    0,000
710,651;  -20,300;  -20,300;    0,000
710,800;   13,700;   13,700;    0,000
710,949;   -1,000;   -1,000;    0,000
711,098;  -38,200;  -38,200;    0,000
711,247;    8,300;    8,300;    0,000
711,396;  -18,700;  -18,700;    0,000
711,545;  -43,600;  -43,600;    0,000
711,694;   -6,000;   -6,000;    0,000
711,843;   46,000;   46,000;    0,000
711,992;  -32,800;  -32,800;    0,000
712,141;    6,500;    6,500;    0,000
712,290;   -7,700;   -7,700;    0,000
712,439;  -13,000;  -13,000;    0,000
712,589;   -3,700;   -3,700;    0,000
712,737;   21,300;   21,300;    0,000
712,886;   23,700;   23,700;    0,000
713,035;   -1,500;   -1,500;    0,000
713,184;  -11,700;  -11,700;    0,000
713,333;   12,300;   12,300;    0,000
713,482;   -1,400;   -1,400;    0,000
713,631;   -7,600;   -7,600;    0,000
713,780;   19,800;   19,800;    0,000
713,929;   22,800;   22,800;    0,000
714,078;   24,300;   24,300;    0,000
714,227;    1,900;    1,900;    0,000
714,376;  -34,400;  -34,400;    0,000
714,525;   23,700;   23,700;    0,000
714,674;  -37,800;  -37,800;    0,000
714,823;    7,700;    7,700;    0,000
714,972;  -27,400;  -27,400;    0,000
715,120;   47,400;   47,400;    0,000
715,269;  -39,900;  -39,900;    0,000
715,418;   23,800;   23,800;    0,000
715,567;  -30,800;  -30,800;    0,000
715,716;    5,900;    5,900;    0,000
715,865;   -9,100;   -9,100;    0,000
716,013;    8,700;    8,700;    0,000
716,162;  -12,400;  -12,400;    0,000
716,311;   38,500;   38,500;    0,000
716,460;    0,300;    0,300;    0,000
716,609;    0,900;    0,900;    0,000
716,757;  -14,600;  -14,600;    0,000
716,906;   24,400;   24,400;    0,000
717,055;   12,400;   12,400;    0,000
717,203;   -1,500;   -1,500;    0,000
717,352;  -11,200;  -11,200;    0,000
717,501;   -4,000;   -4,000;    0,000
717,650;   17,700;   17,700;    0,000
717,798;   -1,100;   -1,100;    0,000
717,947;    9,200;    9,200;    0,000
718,096;   -2,400;   -2,400;    0,000
718,244;   14,000;   14,000;    0,000
718,393;   14,500;   14,500;    0,000
718,542;  -10,500;  -10,500;    0,000
718,690;   -2,300;   -2,300;    0,000
718,839;  -23,700;  -23,700;    0,000
718,988;    4,500;    4,500;    0,000
719,136;    5,200;    5,200;    0,000
719,285;   35,200;   35,200;    0,000
719,433;  -20,800;  -20,800;    0,000
719,582;   23,900;   23,900;    0,000
719,731;   -3,100;   -3,100;    0,000
719,879;   -3,400;   -3,400;    0,000
720,028;   -4,400;   -4,400;    0,000
720,176;   47,600;   47,600;    0,000
720,325;  -31,600;  -31,600;    0,000
720,473;  -42,000;  -42,000;    0,000
720,622;   46,900;   46,900;    0,000
720,770;    3,900;    3,900;    0,000
720,919;  -34,500;  -34,500;    0,000
721,067;    5,800;    5,800;    0,000
721,216;    0,500;    0,500;    0,000
721,364;   -0,600;   -0,600;    0,000
721,513;   14,000;   14,000;    0,000
721,661;   19,400;   19,400;    0,000
721,810;   31,000;   31,000;    0,000
721,958;  -17,200;  -17,200;    0,000
722,106;   -8,500;   -8,500;    0,000
722,255;   -4,500;   -4,500;    0,000
722,403;  -35,800;  -35,800;    0,000
722,552;   31,400;   31,400;    0,000
722,700;  -21,200;  -21,200;    0,000
722,848;   10,200;   10,200;    0,000
722,997;    6,200;    6,200;    0,000
723,145;   27,700;   27,700;    0,000
723,294;  -17,200;  -17,200;    0,000
723,442;   13,000;   13,000;    0,000
723,590;   25,700;   25,700;    0,000
723,738;  -10,500;  -10,500;    0,000
723,887;    8,400;    8,400;    0,000
724,035;   -0,800;   -0,800;    0,000
724,183;  -20,000;  -20,000;    0,000
724,332;   24,200;   24,200;    0,000
724,480;    3,900;    3,900;    0,000
724,628;   12,400;   12,400;    0,000
724,776;   -5,700;   -5,700;    0,000
724,925;  -29,000;  -29,000;    0,000
725,073;  -33,900;  -33,900;    0,000
725,221;   11,500;   11,500;    0,000
725,369;    3,600;    3,600;    0,000
725,518;    6,600;    6,600;    0,000
725,666;  -27,300;  -27,300;    0,000
725,814;    5,000;    5,000;    0,000
725,962;   26,200;   26,200;    0,000
726,110;   38,700;   38,700;    0,000
726,259;   -0,900;   -0,900;    0,000
726,407;   30,600;   30,600;    0,000
726,555;   19,300;   19,300;    0,000
726,703;   42,100;   42,100;    0,000
726,851;   11,100;   11,100;    0,000
726,999;    9,000;    9,000;    0,000
727,147;  -21,100;  -21,100;    0,000
727,295;   23,400;   23,400;    0,000
727,443;  -26,200;  -26,200;    0,000
727,592;   32,100;   32,100;    0,000
727,740;   42,800;   42,800;    0,000
727,888;   28,100;   28,100;    0,000
728,036;   -1,400;   -1,400;    0,000
728,184;    3,200;    3,200;    0,000
728,332;  -16,200;  -16,200;    0,000
728,480;   33,900;   33,900;    0,000
728,628;  -31,500;  -31,500;    0,000
728,776;   22,400;   22,400;    0,000
728,924;  -29,300;  -29,300;    0,000
729,072;   -7,700;   -7,700;    0,000
729,220;  -17,100;  -17,100;    0,000
729,368;   46,900;   46,900;    0,000
729,516;   -8,000;   -8,000;    0,000
729,664;   -6,300;   -6,300;    0,000
729,812;   72,900;   72,900;    0,000
729,960;  -53,300;  -53,300;    0,000
730,107;  -31,200;  -31,200;    0,000
730,255;  -12,400;  -12,400;    0,000
730,403;   -3,900;   -3,900;    0,000
730,551;   36,600;   36,600;    0,000
730,699;   16,900;   16,900;    0,000
730,847;  -31,700;  -31,700;    0,000
730,995;   32,500;   32,500;    0,000
731,143;    0,800;    0,800;    0,000
731,290;    6,400;    6,400;    0,000
731,438;  -17,700;  -17,700;    0,000
731,586;   -1,200;   -1,200;    0,000
731,734;   19,600;   19,600;    0,000
731,882;   66,400;   66,400;    0,000
732,029;    1,100;    1,100;    0,000
732,177;  -13,300;  -13,300;    0,000
732,325;   34,100;   34,100;    0,000
732,473;  -16,600;  -16,600;    0,000
732,621;  -50,900;  -50,900;    0,000
732,768;  -28,000;  -28,000;    0,000
732,916;    9,500;    9,500;    0,000
733,064;    9,100;    9,100;    0,000
733,212;   -1,600;   -1,600;    0,000
733,359;  -31,200;  -31,200;    0,000
733,507;   16,000;   16,000;    0,000
733,655;  -42,500;  -42,500;    0,000
733,802;    7,700;    7,700;    0,000
733,950;   10,600;   10,600;    0,000
734,098;    1,500;    1,500;    0,000
734,245;   22,800;   22,800;    0,000
734,393;   -0,200;   -0,200;    0,000
734,541;   -5,200;   -5,200;    0,000
734,688;  -16,500;  -16,500;    0,000
734,836;   -0,500;   -0,500;    0,000
734,983;    9,300;    9,300;    0,000
735,131;   18,000;   18,000;    0,000
735,279;  -11,000;  -11,000;    0,000
735,426;   -9,400;   -9,400;    0,000
735,574;   24,600;   24,600;    0,000
735,721;  -13,800;  -13,800;    0,000
735,869;   31,500;   31,500;    0,000
736,016;  -40,000;  -40,000;    0,000
736,164;   16,600;   16,600;    0,000
736,311;  -18,500;  -18,500;    0,000
736,459;   20,700;   20,700;    0,000
736,606;  -33,400;  -33,400;    0,000
736,754;   44,600;   44,600;    0,000
736,901;   10,400;   10,400;    0,000
737,049;   13,600;   13,600;    0,000
737,196;  -15,500;  -15,500;    0,000
737,344;   38,700;   38,700;    0,000
737,491;  -27,400;  -27,400;    0,000
737,639;    4,700;    4,700;    0,000
737,786;   -1,000;   -1,000;    0,000
737,934;    9,800;    9,800;    0,000
738,081;   32,000;   32,000;    0,000
738,228;    7,600;    7,600;    0,000
738,376;  -17,000;  -17,000;    0,000
738,523;    3,800;    3,800;    0,000
738,670;  -10,200;  -10,200;    0,000
738,818;  -11,900;  -11,900;    0,000
738,965;  -21,100;  -21,100;    0,000
739,112;  -21,400;  -21,400;    0,000
739,260;  -40,700;  -40,700;    0,000
739,407;   -3,300;   -3,300;    0,000
739,554;   -2,500;   -2,500;    0,000
739,702;  -20,000;  -20,000;    0,000
739,849;  -28,100;  -28,100;    0,000
739,996;    5,800;    5,800;    0,000
740,144;  -23,200;  -23,200;    0,000
740,291;   -2,500;   -2,500;    0,000
740,438;  -29,000;  -29,000;    0,000
740,585;   23,400;   23,400;    0,000
740,733;   -0,900;   -0,900;    0,000
740,880;  -14,500;  -14,500;    0,000
741,027;  -37,600;  -37,600;    0,000
741,174;   16,900;   16,900;    0,000
741,321;  -27,200;  -27,200;    0,000
741,469;   -2,300;   -2,300;    0,000
741,616;    3,500;    3,500;    0,000
741,763;  -13,900;  -13,900;    0,000
741,910;  -27,700;  -27,700;    0,000
742,057;   41,400;   41,400;    0,000
742,204;   -7,600;   -7,600;    0,000
742,352;    4,100;    4,100;    0,000
742,499;  -20,700;  -20,700;    0,000
742,646;   14,900;   14,900;    0,000
742,793;  -13,600;  -13,600;    0,000
742,940;  -20,000;  -20,000;    0,000
743,087;   25,300;   25,300;    0,000
743,234;    3,200;    3,200;    0,000
743,381;  -42,500;  -42,500;    0,000
743,528;   24,700;   24,700;    0,000
743,675;    0,100;    0,100;    0,000
743,822;   36,900;   36,900;    0,000
743,969;    2,300;    2,300;    0,000
744,116;   11,600;   11,600;    0,000
744,263;    6,300;    6,300;    0,000
744,410;   12,700;   12,700;    0,000
744,557;  -41,800;  -41,800;    0,000
744,704;   14,600;   14,600;    0,000
744,851;   -6,300;   -6,300;    0,000
744,998;    9,200;    9,200;    0,000
745,145;  -12,300;  -12,300;    0,000
745,292;    0,800;    0,800;    0,000
745,439;  -41,400;  -41,400;    0,000
745,586;  -25,500;  -25,500;    0,000
745,733;   -8,000;   -8,000;    0,000
745,880;   33,800;   33,800;    0,000
746,027;  -16,000;  -16,000;    0,000
746,174;   -4,000;   -4,000;    0,000
746,320;  -37,700;  -37,700;    0,000
746,467;   13,300;   13,300;    0,000
746,614;   -5,200;   -5,200;    0,000
746,761;  -34,900;  -34,900;    0,000
746,908;  -16,400;  -16,400;    0,000
747,055;   -4,500;   -4,500;    0,000
747,201;  -31,700;  -31,700;    0,000
747,348;   26,000;   26,000;    0,000
747,495;  -27,500;  -27,500;    0,000
747,642;    9,500;    9,500;    0,000
747,789;  -21,500;  -21,500;    0,000
747,935;    4,400;    4,400;    0,000
748,082;  -47,300;  -47,300;    0,000
748,229;   33,700;   33,700;    0,000
748,376;   14,800;   14,800;    0,000
748,522;    0,400;    0,400;    0,000
748,669;   -0,700;   -0,700;    0,000
748,816;   54,900;   54,900;    0,000
748,962;  -27,300;  -27,300;    0,000
749,109;  -55,300;  -55,300;    0,000
749,256;   -2,600;   -2,600;    0,000
749,402;   39,500;   39,500;    0,000
749,549;   -6,400;   -6,400;    0,000
749,696;  -24,800;  -24,800;    0,000
749,842;    4,300;    4,300;    0,000
749,989;   35,100;   35,100;    0,000
750,136;  -32,600;  -32,600;    0,000
750,282;  -34,600;  -34,600;    0,000
750,429;  -62,700;  -62,700;    0,000
750,575;  -16,900;  -16,900;    0,000
750,722;   -0,500;   -0,500;    0,000
750,869;    6,100;    6,100;    0,000
751,015;    7,200;    7,200;    0,000
751,162;   29,600;   29,600;    0,000
751,308;   -9,300;   -9,300;    0,000
751,455;   31,300;   31,300;    0,000
751,601;   14,700;   14,700;    0,000
751,748;   12,600;   12,600;    0,000
751,894;   11,900;   11,900;    0,000
752,041;  -21,000;  -21,000;    0,000
752,187;   -2,600;   -2,600;    0,000
752,334;  -10,700;  -10,700;    0,000
752,480;    3,000;    3,000;    0,000
752,627;   -3,500;   -3,500;    0,000
752,773;  -26,800;  -26,800;    0,000
752,920;   22,500;   22,500;    0,000
753,066;   11,700;   11,700;    0,000
753,212;   32,800;   32,800;    0,000
753,359;  -27,300;  -27,300;    0,000
753,505;   28,200;   28,200;    0,000
753,652;  -12,500;  -12,500;    0,000
753,798;  -32,400;  -32,400;    0,000
753,944;  -22,400;  -22,400;    0,000
754,091;   36,300;   36,300;    0,000
754,237;   26,600;   26,600;    0,000
754,383;   -1,800;   -1,800;    0,000
754,530;  -28,900;  -28,900;    0,000
754,676;   -2,200;   -2,200;    0,000
754,822;   -3,200;   -3,200;    0,000
754,969;   -2,400;   -2,400;    0,000
755,115;  198,300;  198,300;    0,000
755,261;   13,800;   13,800;    0,000
755,407;    7,500;    7,500;    0,000
755,554;  -26,300;  -26,300;    0,000
755,700;   19,900;   19,900;    0,000
755,846;    8,400;    8,400;    0,000
755,992;   -1,000;   -1,000;    0,000
756,139;  -15,200;  -15,200;    0,000
756,285;    6,500;    6,500;    0,000
756,431;   -4,500;   -4,500;    0,000
756,577;  -19,700;  -19,700;    0,000
756,723;  -26,000;  -26,000;    0,000
756,870;    1,400;    1,400;    0,000
757,016;    8,600;    8,600;    0,000
757,162;  -23,500;  -23,500;    0,000
757,308;   26,100;   26,100;    0,000
757,454;   -4,500;   -4,500;    0,000
757,600;   -4,100;   -4,100;    0,000
757,746;  -10,500;  -10,500;    0,000
757,893;  -15,700;  -15,700;    0,000
758,039;  -14,100;  -14,100;    0,000
758,185;    1,800;    1,800;    0,000
758,331;   -5,400;   -5,400;    0,000
758,477;   24,500;   24,500;    0,000
758,623;  -35,600;  -35,600;    0,000
758,769;  -24,100;  -24,100;    0,000
758,915;   18,400;   18,400;    0,000
759,061;   -5,200;   -5,200;    0,000
759,207;    7,800;    7,800;    0,000
759,353;  -15,400;  -15,400;    0,000
759,499;    3,200;    3,200;    0,000
759,645;   -3,800;   -3,800;    0,000
759,791;   -7,800;   -7,800;    0,000
759,937;   -4,600;   -4,600;    0,000
760,083;   30,400;   30,400;    0,000
760,229;    5,400;    5,400;    0,000
760,375;   -5,800;   -5,800;    0,000
760,521;    7,200;    7,200;    0,000
760,667;   28,000;   28,000;    0,000
760,813;    1,100;    1,100;    0,000
760,958;    9,300;    9,300;    0,000
761,104;   23,300;   23,300;    0,000
761,250;   36,100;   36,100;    0,000
761,396;  -17,600;  -17,600;    0,000
761,542;   -5,200;   -5,200;    0,000
761,688;   37,100;   37,100;    0,000
761,834;  -24,500;  -24,500;    0,000
761,980;  -11,600;  -11,600;    0,000
762,125;  -27,800;  -27,800;    0,000
762,271;    6,900;    6,900;    0,000
762,417;  -14,200;  -14,200;    0,000
762,563;  -29,300;  -29,300;    0,000
762,709;  -30,900;  -30,900;    0,000
762,854;    5,300;    5,300;    0,000
763,000;  -39,300;  -39,300;    0,000
763,146;  -29,700;  -29,700;    0,000
763,292;  -14,700;  -14,700;    0,000
763,437;   32,300;   32,300;    0,000
763,583;  -47,900;  -47,900;    0,000
763,729;   51,100;   51,100;    0,000
763,874;   -0,500;   -0,500;    0,000
764,020;   -4,600;   -4,600;    0,000
764,166;  -47,000;  -47,000;    0,000
764,312;    9,600;    9,600;    0,000
764,457;  -30,300;  -30,300;    0,000
764,603;    9,400;    9,400;    0,000
764,748;    9,000;    9,000;    0,000
764,894;  -10,300;  -10,300;    0,000
765,040;  -29,400;  -29,400;    0,000
765,185;   11,500;   11,500;    0,000
765,331;   12,000;   12,000;    0,000
765,477;    1,900;    1,900;    0,000
765,622;   18,300;   18,300;    0,000
765,768;  -17,400;  -17,400;    0,000
765,913;   -7,500;   -7,500;    0,000
766,059;   21,000;   21,000;    0,000
766,204;   16,500;   16,500;    0,000
766,350;  -17,700;  -17,700;    0,000
766,495;   24,900;   24,900;    0,000
766,641;   13,500;   13,500;    0,000
766,786;  -54,300;  -54,300;    0,000
766,932;    0,100;    0,100;    0,000
767,077;  -41,900;  -41,900;    0,000
767,223;  -21,200;  -21,200;    0,000
767,368;  -26,600;  -26,600;    0,000
767,514;  -10,800;  -10,800;    0,000
767,659;  -13,200;  -13,200;    0,000
767,805;   13,700;   13,700;    0,000
767,950;    5,500;    5,500;    0,000
768,096;   22,100;   22,100;    0,000
768,241;  -29,100;  -29,100;    0,000
768,386;  -21,400;  -21,400;    0,000
768,532;   -5,000;   -5,000;    0,000
768,677;  -23,400;  -23,400;    0,000
768,823;  -12,300;  -12,300;    0,000
768,968;   -1,500;   -1,500;    0,000
769,113;  -28,300;  -28,300;    0,000
769,259;  -28,400;  -28,400;    0,000
769,404;   -4,600;   -4,600;    0,000
769,549;  -21,100;  -21,100;    0,000
769,695;    5,800;    5,800;    0,000
769,840;  -31,100;  -31,100;    0,000
769,985;  -20,300;  -20,300;    0,000
770,130;   39,500;   39,500;    0,000
770,276;    3,100;    3,100;    0,000
770,421;   20,600;   20,600;    0,000
770,566;   19,000;   19,000;    0,000
770,711;   -9,000;   -9,000;    0,000
770,857;    5,900;    5,900;    0,000
771,002;   21,800;   21,800;    0,000
771,147;   14,000;   14,000;    0,000
771,292;   24,400;   24,400;    0,000
771,438;    3,900;    3,900;    0,000
771,583;   27,200;   27,200;    0,000
771,728;  -27,800;  -27,800;    0,000
771,873;    0,800;    0,800;    0,000
772,018;   -0,400;   -0,400;    0,000
772,163;   15,800;   15,800;    0,000
772,308;   10,600;   10,600;    0,000
772,454;    4,000;    4,000;    0,000
772,599;  -29,200;  -29,200;    0,000
772,744;  -17,100;  -17,100;    0,000
772,889;   -1,100;   -1,100;    0,000
773,034;   17,000;   17,000;    0,000
773,179;  -19,500;  -19,500;    0,000
773,324;   -3,600;   -3,600;    0,000
773,469;  -34,100;  -34,100;    0,000
773,614;   37,600;   37,600;    0,000
773,759;  -19,600;  -19,600;    0,000
773,904;   -7,000;   -7,000;    0,000
774,049;   32,800;   32,800;    0,000
774,194;   35,100;   35,100;    0,000
774,339;  -34,700;  -34,700;    0,000
774,484;   31,600;   31,600;    0,000
774,629;    7,600;    7,600;    0,000
774,774;    6,300;    6,300;    0,000
774,919;  -18,500;  -18,500;    0,000
775,064;   18,000;   18,000;    0,000
775,209;  -25,900;  -25,900;    0,000
775,354;   28,900;   28,900;    0,000
775,499;  -27,500;  -27,500;    0,000
775,644;   11,700;   11,700;    0,000
775,789;  -25,300;  -25,300;    0,000
775,934;   -1,200;   -1,200;    0,000
776,078;  -13,800;  -13,800;    0,000
776,223;    9,100;    9,100;    0,000
776,368;   10,300;   10,300;    0,000
776,513;    7,800;    7,800;    0,000
776,658;   30,600;   30,600;    0,000
776,803;   69,000;   69,000;    0,000
776,947;  112,500;  112,500;    0,000
777,092;  308,000;  308,000;    0,000
777,237; 1893,900; 1893,900;    0,000
777,382; 2916,200; 2916,200;    0,000
777,527; 3026,000; 3026,000;    0,000
777,671; 2523,500; 2523,500;    0,000
777,816;  974,000;  974,000;    0,000
777,961;  344,500;  344,500;    0,000
778,106;  108,000;  108,000;    0,000
778,250;   78,100;   78,100;    0,000
778,395;   40,500;   40,500;    0,000
778,540;   14,100;   14,100;    0,000
778,684;   18,800;   18,800;    0,000
778,829;   -0,500;   -0,500;    0,000
778,974;   14,700;   14,700;    0,000
779,118;   19,400;   19,400;    0,000
779,263;  -15,600;  -15,600;    0,000
779,408;    2,900;    2,900;    0,000
779,552;  -10,400;  -10,400;    0,000
779,697;    6,500;    6,500;    0,000
779,842;   -8,600;   -8,600;    0,000
779,986;   10,200;   10,200;    0,000
780,131;   -9,800;   -9,800;    0,000
780,275;   -5,900;   -5,900;    0,000
780,420;   25,800;   25,800;    0,000
780,565;   15,200;   15,200;    0,000
780,709;    8,100;    8,100;    0,000
780,854;   15,300;   15,300;    0,000
780,998;   13,100;   13,100;    0,000
781,143;   -2,600;   -2,600;    0,000
781,287;   18,400;   18,400;    0,000
781,432;   -0,400;   -0,400;    0,000
781,576;  -16,900;  -16,900;    0,000
781,721;   35,800;   35,800;    0,000
781,865;  -30,800;  -30,800;    0,000
782,010;    6,500;    6,500;    0,000
782,154;  -25,100;  -25,100;    0,000
782,299;   -6,700;   -6,700;    0,000
782,443;    3,000;    3,000;    0,000
782,587;   -7,100;   -7,100;    0,000
782,732;  -25,100;  -25,100;    0,000
782,876;   -5,600;   -5,600;    0,000
783,021;   -2,400;   -2,400;    0,000
783,165;   45,900;   45,900;    0,000
783,309;   -4,000;   -4,000;    0,000
783,454;   26,800;   26,800;    0,000
783,598;   56,900;   56,900;    0,000
783,742;   -5,100;   -5,100;    0,000
783,887;  -49,900;  -49,900;    0,000
784,031;  -18,000;  -18,000;    0,000
784,175;   55,800;   55,800;    0,000
784,320;   -6,800;   -6,800;    0,000
784,464;    4,800;    4,800;    0,000
784,608;   30,600;   30,600;    0,000
784,753;  -38,600;  -38,600;    0,000
784,897;   -9,100;   -9,100;    0,000
785,041;   -9,100;   -9,100;    0,000
785,185;    4,500;    4,500;    0,000
785,330;   14,400;   14,400;    0,000
785,474;   33,400;   33,400;    0,000
785,618;  -22,800;  -22,800;    0,000
785,762;   31,300;   31,300;    0,000
785,906;   -3,100;   -3,100;    0,000
786,051;   30,500;   30,500;    0,000
786,195;    1,400;    1,400;    0,000
786,339;  -11,900;  -11,900;    0,000
786,483;   -9,300;   -9,300;    0,000
786,627;   18,100;   18,100;    0,000
786,771;   35,500;   35,500;    0,000
786,916;   -3,200;   -3,200;    0,000
787,060;   -3,800;   -3,800;    0,000
787,204;   20,200;   20,200;    0,000
787,348;   22,200;   22,200;    0,000
787,492;   13,600;   13,600;    0,000
787,636;   -0,700;   -0,700;    0,000
787,780;   11,100;   11,100;    0,000
787,924;   10,300;   10,300;    0,000
788,068;   11,000;   11,000;    0,000
788,212;   -7,000;   -7,000;    0,000
788,356;   -2,400;   -2,400;    0,000
788,500;   27,000;   27,000;    0,000
788,644;  -16,000;  -16,000;    0,000
788,788;  -16,400;  -16,400;    0,000
788,932;   20,800;   20,800;    0,000
789,076;   21,200;   21,200;    0,000
789,220;   21,000;   21,000;    0,000
789,364;    3,600;    3,600;    0,000
789,508;  -22,900;  -22,900;    0,000
789,652;  -19,500;  -19,500;    0,000
789,796;   12,400;   12,400;    0,000
789,940;  -26,100;  -26,100;    0,000
790,084;   36,200;   36,200;    0,000
790,228;   -7,800;   -7,800;    0,000
790,371;  -30,600;  -30,600;    0,000
790,515;  -46,300;  -46,300;    0,000
790,659;    2,900;    2,900;    0,000
790,803;    7,000;    7,000;    0,000
790,947;    4,000;    4,000;    0,000
791,091;  -15,800;  -15,800;    0,000
791,235;   22,400;   22,400;    0,000
791,378;    1,800;    1,800;    0,000
791,522;   12,000;   12,000;    0,000
791,666;   13,300;   13,300;    0,000
791,810;  -10,700;  -10,700;    0,000
791,953;   23,500;   23,500;    0,000
792,097;  -13,900;  -13,900;    0,000
792,241;  -25,500;  -25,500;    0,000
792,385;   32,700;   32,700;    0,000
792,529;  -26,700;  -26,700;    0,000
792,672;  -36,600;  -36,600;    0,000
792,816;    1,800;    1,800;    0,000
792,960;   -0,700;   -0,700;    0,000
793,103;   17,100;   17,100;    0,000
793,247;   12,000;   12,000;    0,000
793,391;    2,900;    2,900;    0,000
793,534;  -18,000;  -18,000;    0,000
793,678;   25,800;   25,800;    0,000
793,822;   -2,400;   -2,400;    0,000
793,965;    6,900;    6,900;    0,000
794,109;  -34,600;  -34,600;    0,000
794,252;   20,200;   20,200;    0,000
794,396;   47,700;   47,700;    0,000
794,540;  -36,500;  -36,500;    0,000
794,683;  -13,500;  -13,500;    0,000
794,827;   -4,600;   -4,600;    0,000
794,970;    3,200;    3,200;    0,000
795,114;   46,000;   46,000;    0,000
795,257;   48,300;   48,300;    0,000
795,401;   -1,900;   -1,900;    0,000
795,544;   23,300;   23,300;    0,000
795,688;    4,900;    4,900;    0,000
795,831;  -35,600;  -35,600;    0,000
795,975;   -6,600;   -6,600;    0,000
796,118;    6,700;    6,700;    0,000
796,262;  -13,400;  -13,400;    0,000
796,405;    9,900;    9,900;    0,000
796,549;   10,500;   10,500;    0,000
796,692;   14,200;   14,200;    0,000
796,836;  -23,100;  -23,100;    0,000
796,979;    2,000;    2,000;    0,000
797,122;  -22,000;  -22,000;    0,000
797,266;   43,900;   43,900;    0,000
797,409;   21,300;   21,300;    0,000
797,553;  -42,100;  -42,100;    0,000
797,696;   -9,400;   -9,400;    0,000
797,839;  -10,400;  -10,400;    0,000
797,983;   51,000;   51,000;    0,000
798,126;   10,600;   10,600;    0,000
798,269;  -23,600;  -23,600;    0,000
798,413;    6,000;    6,000;    0,000
798,556;    4,000;    4,000;    0,000
798,699;    9,000;    9,000;    0,000
798,843;   -1,500;   -1,500;    0,000
798,986;    7,600;    7,600;    0,000
799,129;    7,200;    7,200;    0,000
799,272;   25,700;   25,700;    0,000
799,416;   12,300;   12,300;    0,000
799,559;    1,800;    1,800;    0,000
799,702;    9,900;    9,900;    0,000
799,845;   -1,700;   -1,700;    0,000
799,988;  -22,100;  -22,100;    0,000
800,132;  -12,800;  -12,800;    0,000
800,275;  -27,300;  -27,300;    0,000
800,418;   -7,300;   -7,300;    0,000
800,561;    7,000;    7,000;    0,000
800,704;   50,000;   50,000;    0,000
800,847;    1,800;    1,800;    0,000
800,990;  -11,400;  -11,400;    0,000
801,134;   13,200;   13,200;    0,000
801,277;    4,900;    4,900;    0,000
801,420;   -8,100;   -8,100;    0,000
801,563;    2,500;    2,500;    0,000
801,706;  -13,500;  -13,500;    0,000
801,849;   27,100;   27,100;    0,000
801,992;  -29,200;  -29,200;    0,000
802,135;   36,100;   36,100;    0,000
802,278;    3,100;    3,100;    0,000
802,421;   22,700;   22,700;    0,000
802,564;  -62,000;  -62,000;    0,000
802,707;   12,300;   12,300;    0,000
802,850;   37,900;   37,900;    0,000
802,993;   -6,700;   -6,700;    0,000
803,136;   14,800;   14,800;    0,000
803,279;  -12,600;  -12,600;    0,000
803,422;  -11,300;  -11,300;    0,000
803,565;  -23,100;  -23,100;    0,000
803,708;   -3,900;   -3,900;    0,000
803,851;  -12,000;  -12,000;    0,000
803,994;   20,400;   20,400;    0,000
804,137;    3,900;    3,900;    0,000
804,280;  -13,100;  -13,100;    0,000
804,422;    1,800;    1,800;    0,000
804,565;    4,000;    4,000;    0,000
804,708;    4,800;    4,800;    0,000
804,851;   11,100;   11,100;    0,000
804,994;   -8,700;   -8,700;    0,000
805,137;   -0,400;   -0,400;    0,000
805,280;   15,700;   15,700;    0,000
805,422;  -14,700;  -14,700;    0,000
805,565;   25,400;   25,400;    0,000
805,708;  -42,600;  -42,600;    0,000
805,851;  -31,300;  -31,300;    0,000
805,994;   -4,300;   -4,300;    0,000
806,136;   22,400;   22,400;    0,000
806,279;   -3,000;   -3,000;    0,000
806,422;   -1,000;   -1,000;    0,000
806,565;    8,900;    8,900;    0,000
806,707;   28,800;   28,800;    0,000
806,850;  -11,000;  -11,000;    0,000
806,993;   30,800;   30,800;    0,000
807,135;  -11,600;  -11,600;    0,000
807,278;   31,100;   31,100;    0,000
807,421;    4,800;    4,800;    0,000
807,563;   19,300;   19,300;    0,000
807,706;  -16,400;  -16,400;    0,000
807,849;   13,800;   13,800;    0,000
807,991;  -24,000;  -24,000;    0,000
808,134;  -10,400;  -10,400;    0,000
808,276;   -8,500;   -8,500;    0,000
808,419;    6,700;    6,700;    0,000
808,562;    7,700;    7,700;    0,000
808,704;   11,100;   11,100;    0,000
808,847;   49,600;   49,600;    0,000
808,989;  -16,300;  -16,300;    0,000
809,132;  -28,000;  -28,000;    0,000
809,274;    9,500;    9,500;    0,000
809,417;  -29,600;  -29,600;    0,000
809,559;   47,000;   47,000;    0,000
809,702;   -1,600;   -1,600;    0,000
809,844;  -10,500;  -10,500;    0,000
809,987;  -16,700;  -16,700;    0,000
810,129;  -22,400;  -22,400;    0,000
810,272;   -7,500;   -7,500;    0,000
810,414;   -5,000;   -5,000;    0,000
810,557;   -9,100;   -9,100;    0,000
810,699;   -1,400;   -1,400;    0,000
810,841;  -18,200;  -18,200;    0,000
810,984;   14,500;   14,500;    0,000
811,126;   17,600;   17,600;    0,000
811,269;   -5,700;   -5,700;    0,000
811,411;   -6,800;   -6,800;    0,000
811,553;   24,400;   24,400;    0,000
811,696;  -28,400;  -28,400;    0,000
811,838;   31,500;   31,500;    0,000
811,980;    8,200;    8,200;    0,000
812,123;  -34,900;  -34,900;    0,000
812,265;   -5,800;   -5,800;    0,000
812,407;  -19,000;  -19,000;    0,000
812,550;  -28,400;  -28,400;    0,000
812,692;   42,100;   42,100;    0,000
812,834;  -42,600;  -42,600;    0,000
812,977;   14,000;   14,000;    0,000
813,119;   90,800;   90,800;    0,000
813,261;   18,900;   18,900;    0,000
813,403;  -12,900;  -12,900;    0,000
813,545;   17,200;   17,200;    0,000
813,688;   15,600;   15,600;    0,000
813,830;  -19,200;  -19,200;    0,000
813,972;  -29,500;  -29,500;    0,000
814,114;   43,100;   43,100;    0,000
814,256;   15,500;   15,500;    0,000
814,399;  -15,000;  -15,000;    0,000
814,541;   13,400;   13,400;    0,000
814,683;  -30,300;  -30,300;    0,000
814,825;  -21,200;  -21,200;    0,000
814,967;  -13,800;  -13,800;    0,000
815,109;  -31,900;  -31,900;    0,000
815,251;   12,400;   12,400;    0,000
815,393;    6,600;    6,600;    0,000
815,535;   10,300;   10,300;    0,000
815,677;   -1,400;   -1,400;    0,000
815,820;   -1,400;   -1,400;    0,000
815,962;  -11,500;  -11,500;    0,000
816,104;   53,100;   53,100;    0,000
816,246;  -10,000;  -10,000;    0,000
816,388;   11,600;   11,600;    0,000
816,530;   19,200;   19,200;    0,000
816,672;  -13,100;  -13,100;    0,000
816,814;  -27,600;  -27,600;    0,000
816,956;   -6,800;   -6,800;    0,000
817,098;  -27,400;  -27,400;    0,000
817,240;    2,400;    2,400;    0,000
817,381;   -6,600;   -6,600;    0,000
817,523;   44,600;   44,600;    0,000
817,665;  -36,600;  -36,600;    0,000
817,807;  -18,900;  -18,900;    0,000
817,949;    0,900;    0,900;    0,000
818,091;    8,100;    8,100;    0,000
818,233;   -6,500;   -6,500;    0,000
818,375;   15,900;   15,900;    0,000
818,517;   -0,500;   -0,500;    0,000
818,658;  -10,700;  -10,700;    0,000
818,800;  -28,300;  -28,300;    0,000
818,942;  -30,900;  -30,900;    0,000
819,084;   25,700;   25,700;    0,000
819,226;    1,800;    1,800;    0,000
819,367;   -8,900;   -8,900;    0,000
819,509;   33,200;   33,200;    0,000
819,651;    0,400;    0,400;    0,000
819,793;   -7,200;   -7,200;    0,000
819,935;   11,700;   11,700;    0,000
820,076;   18,500;   18,500;    0,000
820,218;   -9,000;   -9,000;    0,000
820,360;    4,700;    4,700;    0,000
820,501;   58,900;   58,900;    0,000
820,643;   14,100;   14,100;    0,000
820,785;  -37,100;  -37,100;    0,000
820,927;   -2,600;   -2,600;    0,000
821,068;  -15,800;  -15,800;    0,000
821,210;   -3,600;   -3,600;    0,000
821,352;  -22,700;  -22,700;    0,000
821,493;   -8,900;   -8,900;    0,000
821,635;   12,100;   12,100;    0,000
821,776;    2,500;    2,500;    0,000
821,918;   11,300;   11,300;    0,000
822,060;   -4,700;   -4,700;    0,000
822,201;   20,100;   20,100;    0,000
822,343;   17,000;   17,000;    0,000
822,484;  -37,900;  -37,900;    0,000
822,626;    8,800;    8,800;    0,000
822,767;    2,700;    2,700;    0,000
822,909;    5,800;    5,800;    0,000
823,050;  -12,400;  -12,400;    0,000
823,192;    7,200;    7,200;    0,000
823,333;   -2,100;   -2,100;    0,000
823,475;    6,100;    6,100;    0,000
823,616;  -26,900;  -26,900;    0,000
823,758;    9,200;    9,200;    0,000
823,899;  -22,500;  -22,500;    0,000
824,041;   -1,800;   -1,800;    0,000
824,182;  -43,200;  -43,200;    0,000
824,324;  -32,000;  -32,000;    0,000
824,465;   41,200;   41,200;    0,000
824,606;   20,200;   20,200;    0,000
824,748;   22,000;   22,000;    0,000
824,889;   -8,900;   -8,900;    0,000
825,031;  -18,300;  -18,300;    0,000
825,172;  -21,700;  -21,700;    0,000
825,313;   -4,500;   -4,500;    0,000
825,455;    6,400;    6,400;    0,000
825,596;   26,300;   26,300;    0,000
825,737;   -6,200;   -6,200;    0,000
825,879;  -15,600;  -15,600;    0,000
826,020;    8,000;    8,000;    0,000
826,161;  -21,900;  -21,900;    0,000
826,302;    6,400;    6,400;    0,000
826,444;  -10,200;  -10,200;    0,000
826,585;   -8,400;   -8,400;    0,000
826,726;   35,600;   35,600;    0,000
826,867;   10,400;   10,400;    0,000
827,009;   42,700;   42,700;    0,000
827,150;   -0,200;   -0,200;    0,000
827,291;  -22,900;  -22,900;    0,000
827,432;  -26,000;  -26,000;    0,000
827,573;   -1,100;   -1,100;    0,000
827,715;   -0,500;   -0,500;    0,000
827,856;  -42,900;  -42,900;    0,000
827,997;  -25,000;  -25,000;    0,000
828,138;  -36,400;  -36,400;    0,000
828,279;  -39,000;  -39,000;    0,000
828,420;    0,300;    0,300;    0,000
828,561;   12,200;   12,200;    0,000
828,703;  -30,700;  -30,700;    0,000
828,844;   14,000;   14,000;    0,000
828,985;  -14,300;  -14,300;    0,000
829,126;   38,800;   38,800;    0,000
829,267;    8,200;    8,200;    0,000
829,408;   -7,700;   -7,700;    0,000
829,549;  -12,300;  -12,300;    0,000
829,690;   24,200;   24,200;    0,000
829,831;   28,700;   28,700;    0,000
829,972;   12,500;   12,500;    0,000
830,113;  -37,800;  -37,800;    0,000
830,254;   28,300;   28,300;    0,000
830,395;   10,200;   10,200;    0,000
830,536;  -14,000;  -14,000;    0,000
830,677;    1,000;    1,000;    0,000
830,818;  -13,100;  -13,100;    0,000
830,959;    4,200;    4,200;    0,000
831,100;   -1,600;   -1,600;    0,000
831,240;    0,000;    0,000;    0,000
831,381;   26,200;   26,200;    0,000
831,522;   -5,200;   -5,200;    0,000
831,663;   -7,900;   -7,900;    0,000
831,804;   16,000;   16,000;    0,000
831,945;    9,800;    9,800;    0,000
832,086;    0,400;    0,400;    0,000
832,227;  -24,000;  -24,000;    0,000
832,367;  -18,700;  -18,700;    0,000
832,508;  -12,700;  -12,700;    0,000
832,649;  -35,400;  -35,400;    0,000
832,790;   37,100;   37,100;    0,000
832,931;   -0,900;   -0,900;    0,000
833,071;    4,300;    4,300;    0,000
833,212;   15,700;   15,700;    0,000
833,353;   -4,900;   -4,900;    0,000
833,494;    7,600;    7,600;    0,000
833,634;    6,500;    6,500;    0,000
833,775;  -35,600;  -35,600;    0,000
833,916;  -18,400;  -18,400;    0,000
834,056;    4,300;    4,300;    0,000
834,197;   28,500;   28,500;    0,000
834,338;   16,000;   16,000;    0,000
834,478;  -12,500;  -12,500;    0,000
834,619;  -14,500;  -14,500;    0,000
834,760;   -2,000;   -2,000;    0,000
834,900;   -9,100;   -9,100;    0,000
835,041;   19,300;   19,300;    0,000
835,182;   20,000;   20,000;    0,000
835,322;  -25,700;  -25,700;    0,000
835,463;  -36,600;  -36,600;    0,000
835,603;   11,400;   11,400;    0,000
835,744;   23,900;   23,900;    0,000
835,884;   28,300;   28,300;    0,000
836,025;  -13,900;  -13,900;    0,000
836,166;   -6,400;   -6,400;    0,000
836,306;  -27,300;  -27,300;    0,000
836,447;   19,100;   19,100;    0,000
836,587;  -15,200;  -15,200;    0,000
836,728;    1,700;    1,700;    0,000
836,868;   13,200;   13,200;    0,000
837,009;   25,300;   25,300;    0,000
837,149;  -56,900;  -56,900;    0,000
837,289;  -19,000;  -19,000;    0,000
837,430;    3,100;    3,100;    0,000
837,570;   52,300;   52,300;    0,000
837,711;   31,900;   31,900;    0,000
837,851;  -18,900;  -18,900;    0,000
837,992;   10,100;   10,100;    0,000
838,132;   14,900;   14,900;    0,000
838,272;  -14,900;  -14,900;    0,000
838,413;   27,900;   27,900;    0,000
838,553;  -23,200;  -23,200;    0,000
838,693;   14,900;   14,900;    0,000
838,834;  -29,500;  -29,500;    0,000
838,974;   46,000;   46,000;    0,000
839,114;   29,000;   29,000;    0,000
839,255;  -12,600;  -12,600;    0,000
839,395;   -6,500;   -6,500;    0,000
839,535;   51,900;   51,900;    0,000
839,675;  -30,700;  -30,700;    0,000
839,816;   85,300;   85,300;    0,000
839,956;   34,400;   34,400;    0,000
840,096;   -1,400;   -1,400;    0,000
840,236;   40,900;   40,900;    0,000
840,377;   -7,300;   -7,300;    0,000
840,517;  -12,700;  -12,700;    0,000
840,657;   32,500;   32,500;    0,000
840,797;   16,400;   16,400;    0,000
840,937;   15,900;   15,900;    0,000
841,078;   -5,900;   -5,900;    0,000
841,218;  -18,700;  -18,700;    0,000
841,358;   16,900;   16,900;    0,000
841,498;   -4,700;   -4,700;    0,000
841,638;    4,400;    4,400;    0,000
841,778;   20,700;   20,700;    0,000
841,918;   29,700;   29,700;    0,000
842,058;  -15,300;  -15,300;    0,000
842,198;    3,000;    3,000;    0,000
842,338;    7,200;    7,200;    0,000
842,479;   19,600;   19,600;    0,000
842,619;   -1,200;   -1,200;    0,000
842,759;   55,400;   55,400;    0,000
842,899;    8,700;    8,700;    0,000
843,039;   -8,000;   -8,000;    0,000
843,179;    9,200;    9,200;    0,000
843,319;   -1,300;   -1,300;    0,000
843,459;  -17,000;  -17,000;    0,000
843,599;    9,000;    9,000;    0,000
843,738;    4,500;    4,500;    0,000
843,878;  -24,400;  -24,400;    0,000
844,018;   21,300;   21,300;    0,000
844,158;    5,500;    5,500;    0,000
844,298;   24,800;   24,800;    0,000
844,438;   36,700;   36,700;    0,000
844,578;  325,300;  325,300;    0,000
844,718; 1664,600; 1664,600;    0,000
844,858; 2178,500; 2178,500;    0,000
844,998;  865,100;  865,100;    0,000
845,137;  280,600;  280,600;    0,000
845,277;   68,800;   68,800;    0,000
845,417;   38,800;   38,800;    0,000
845,557;   29,800;   29,800;    0,000
845,697;    0,300;    0,300;    0,000
845,836;   12,900;   12,900;    0,000
845,976;   26,000;   26,000;    0,000
846,116;  -31,700;  -31,700;    0,000
846,256;   14,500;   14,500;    0,000
846,396;    2,500;    2,500;    0,000
846,535;  -20,100;  -20,100;    0,000
846,675;  -29,700;  -29,700;    0,000
846,815;  -20,900;  -20,900;    0,000
846,954;    4,900;    4,900;    0,000
847,094;   -9,600;   -9,600;    0,000
847,234;   33,300;   33,300;    0,000
847,374;   11,700;   11,700;    0,000
847,513;   41,300;   41,300;    0,000
847,653;  -19,500;  -19,500;    0,000
847,792;  -18,100;  -18,100;    0,000
847,932;   -2,900;   -2,900;    0,000
848,072;  -17,300;  -17,300;    0,000
848,211;    5,100;    5,100;    0,000
848,351;    7,800;    7,800;    0,000
848,491;  -17,400;  -17,400;    0,000
848,630;    7,900;    7,900;    0,000
848,770;   35,400;   35,400;    0,000
848,909;   -9,200;   -9,200;    0,000
849,049;  -11,700;  -11,700;    0,000
849,188;   21,900;   21,900;    0,000
849,328;   35,500;   35,500;    0,000
849,467;  -20,400;  -20,400;    0,000
849,607;  -21,500;  -21,500;    0,000
849,746;   -1,100;   -1,100;    0,000
849,886;   -9,300;   -9,300;    0,000
850,025;   -6,700;   -6,700;    0,000
850,165;    4,800;    4,800;    0,000
850,304;  -20,700;  -20,700;    0,000
850,444;   18,100;   18,100;    0,000
850,583;   30,800;   30,800;    0,000
850,722;   -2,500;   -2,500;    0,000
850,862;  -31,700;  -31,700;    0,000
851,001;  -33,100;  -33,100;    0,000
851,141;  -20,300;  -20,300;    0,000
851,280;   -3,300;   -3,300;    0,000
851,419;    1,200;    1,200;    0,000
851,559;  -19,200;  -19,200;    0,000
851,698;  -29,500;  -29,500;    0,000
851,837;   18,100;   18,100;    0,000
851,977;   -8,300;   -8,300;    0,000
852,116;    5,300;    5,300;    0,000
852,255;  -26,000;  -26,000;    0,000
852,395;    2,600;    2,600;    0,000
852,534;  -25,000;  -25,000;    0,000
852,673;   -8,100;   -8,100;    0,000
852,812;   11,100;   11,100;    0,000
852,952;  -19,800;  -19,800;    0,000
853,091;   26,300;   26,300;    0,000
853,230;  -17,800;  -17,800;    0,000
853,369;   -0,700;   -0,700;    0,000
853,508;   -2,500;   -2,500;    0,000
853,648;  -14,100;  -14,100;    0,000
853,787;   47,500;   47,500;    0,000
853,926;  -22,700;  -22,700;    0,000
854,065;   20,800;   20,800;    0,000
854,204;   -3,300;   -3,300;    0,000
854,343;    1,900;    1,900;    0,000
854,482;  -17,400;  -17,400;    0,000
854,622;   22,000;   22,000;    0,000
854,761;   19,300;   19,300;    0,000
854,900;   -0,600;   -0,600;    0,000
855,039;   -4,400;   -4,400;    0,000
855,178;   95,700;   95,700;    0,000
855,317;  -43,000;  -43,000;    0,000
855,456;    3,200;    3,200;    0,000
855,595;   38,200;   38,200;    0,000
855,734;    0,800;    0,800;    0,000
855,873;   -4,000;   -4,000;    0,000
856,012;   -2,500;   -2,500;    0,000
856,151;   16,100;   16,100;    0,000
856,290;  -23,200;  -23,200;    0,000
856,429;   26,000;   26,000;    0,000
856,568;  -11,300;  -11,300;    0,000
856,707;  -36,000;  -36,000;    0,000
856,846;  -20,300;  -20,300;    0,000
856,985;   -5,700;   -5,700;    0,000
857,124;  -18,000;  -18,000;    0,000
857,263;   20,300;   20,300;    0,000
857,401;    5,300;    5,300;    0,000
857,540;   14,900;   14,900;    0,000
857,679;   -4,600;   -4,600;    0,000
857,818;   38,700;   38,700;    0,000
857,957;   14,500;   14,500;    0,000
858,096;   -5,300;   -5,300;    0,000
858,235;    7,900;    7,900;    0,000
858,373;  -38,100;  -38,100;    0,000
858,512;   17,900;   17,900;    0,000
858,651;  -45,600;  -45,600;    0,000
858,790;  -11,700;  -11,700;    0,000
858,929;  -43,900;  -43,900;    0,000
859,067;  -16,400;  -16,400;    0,000
859,206;  -15,400;  -15,400;    0,000
859,345;   -2,500;   -2,500;    0,000
859,484;   26,600;   26,600;    0,000

